Memory Length,4000,
Trigger Level,7.40000e+02,
Source,CH2,
Probe,1.0X,
Vertical Units,V,
Vertical Scale,5.00000e-02,
Vertical Position,4.00000e-03,
Horizontal Units,S,
Horizontal Scale,5.00000e-04,
Horizontal Position,6.0000000e-05,
Horizontal Mode,Main,
Sampling Period,2.00000e-06,
Firmware,V1.14,
Time, ,
Mode,Detail,
Waveform Data,
-3.940000e-3,-1.80e-2,
-3.938000e-3,-1.80e-2,
-3.936000e-3,-1.80e-2,
-3.934000e-3,-1.80e-2,
-3.932000e-3,-1.80e-2,
-3.930000e-3,-1.80e-2,
-3.928000e-3,-1.80e-2,
-3.926000e-3,-1.80e-2,
-3.924000e-3,-1.80e-2,
-3.922000e-3,-1.80e-2,
-3.920000e-3,-1.80e-2,
-3.918000e-3,-2.00e-2,
-3.916000e-3,-2.00e-2,
-3.914000e-3,-2.00e-2,
-3.912000e-3,-2.00e-2,
-3.910000e-3,-1.80e-2,
-3.908000e-3,-1.80e-2,
-3.906000e-3,-2.00e-2,
-3.904000e-3,-2.00e-2,
-3.902000e-3,-1.80e-2,
-3.900000e-3,-1.80e-2,
-3.898000e-3,-1.80e-2,
-3.896000e-3,-1.80e-2,
-3.894000e-3,-2.00e-2,
-3.892000e-3,-2.00e-2,
-3.890000e-3,-2.00e-2,
-3.888000e-3,-2.00e-2,
-3.886000e-3,-2.00e-2,
-3.884000e-3,-2.00e-2,
-3.882000e-3,-2.00e-2,
-3.880000e-3,-2.00e-2,
-3.878000e-3,-2.00e-2,
-3.876000e-3,-2.00e-2,
-3.874000e-3,-2.00e-2,
-3.872000e-3,-2.00e-2,
-3.870000e-3,-2.00e-2,
-3.868000e-3,-2.00e-2,
-3.866000e-3,-2.00e-2,
-3.864000e-3,-2.00e-2,
-3.862000e-3,-2.20e-2,
-3.860000e-3,-2.20e-2,
-3.858000e-3,-2.00e-2,
-3.856000e-3,-2.00e-2,
-3.854000e-3,-2.20e-2,
-3.852000e-3,-2.20e-2,
-3.850000e-3,-2.00e-2,
-3.848000e-3,-2.00e-2,
-3.846000e-3,-2.00e-2,
-3.844000e-3,-2.00e-2,
-3.842000e-3,-2.00e-2,
-3.840000e-3,-2.00e-2,
-3.838000e-3,-2.20e-2,
-3.836000e-3,-2.20e-2,
-3.834000e-3,-2.00e-2,
-3.832000e-3,-2.00e-2,
-3.830000e-3,-2.20e-2,
-3.828000e-3,-2.20e-2,
-3.826000e-3,-2.00e-2,
-3.824000e-3,-2.00e-2,
-3.822000e-3,-2.40e-2,
-3.820000e-3,-2.40e-2,
-3.818000e-3,-2.40e-2,
-3.816000e-3,-2.40e-2,
-3.814000e-3,-2.20e-2,
-3.812000e-3,-2.20e-2,
-3.810000e-3,-2.40e-2,
-3.808000e-3,-2.40e-2,
-3.806000e-3,-2.20e-2,
-3.804000e-3,-2.20e-2,
-3.802000e-3,-2.40e-2,
-3.800000e-3,-2.40e-2,
-3.798000e-3,-2.40e-2,
-3.796000e-3,-2.40e-2,
-3.794000e-3,-2.40e-2,
-3.792000e-3,-2.40e-2,
-3.790000e-3,-2.20e-2,
-3.788000e-3,-2.20e-2,
-3.786000e-3,-2.40e-2,
-3.784000e-3,-2.40e-2,
-3.782000e-3,-2.40e-2,
-3.780000e-3,-2.40e-2,
-3.778000e-3,-2.60e-2,
-3.776000e-3,-2.60e-2,
-3.774000e-3,-2.60e-2,
-3.772000e-3,-2.60e-2,
-3.770000e-3,-2.40e-2,
-3.768000e-3,-2.40e-2,
-3.766000e-3,-2.40e-2,
-3.764000e-3,-2.40e-2,
-3.762000e-3,-2.40e-2,
-3.760000e-3,-2.40e-2,
-3.758000e-3,-2.40e-2,
-3.756000e-3,-2.40e-2,
-3.754000e-3,-2.40e-2,
-3.752000e-3,-2.40e-2,
-3.750000e-3,-2.60e-2,
-3.748000e-3,-2.60e-2,
-3.746000e-3,-2.40e-2,
-3.744000e-3,-2.40e-2,
-3.742000e-3,-2.60e-2,
-3.740000e-3,-2.60e-2,
-3.738000e-3,-2.60e-2,
-3.736000e-3,-2.60e-2,
-3.734000e-3,-2.60e-2,
-3.732000e-3,-2.60e-2,
-3.730000e-3,-2.60e-2,
-3.728000e-3,-2.60e-2,
-3.726000e-3,-2.40e-2,
-3.724000e-3,-2.40e-2,
-3.722000e-3,-2.60e-2,
-3.720000e-3,-2.60e-2,
-3.718000e-3,-2.60e-2,
-3.716000e-3,-2.60e-2,
-3.714000e-3,-2.60e-2,
-3.712000e-3,-2.60e-2,
-3.710000e-3,-2.60e-2,
-3.708000e-3,-2.60e-2,
-3.706000e-3,-2.60e-2,
-3.704000e-3,-2.60e-2,
-3.702000e-3,-2.60e-2,
-3.700000e-3,-2.60e-2,
-3.698000e-3,-2.60e-2,
-3.696000e-3,-2.60e-2,
-3.694000e-3,-2.60e-2,
-3.692000e-3,-2.60e-2,
-3.690000e-3,-2.60e-2,
-3.688000e-3,-2.60e-2,
-3.686000e-3,-2.60e-2,
-3.684000e-3,-2.60e-2,
-3.682000e-3,-2.60e-2,
-3.680000e-3,-2.60e-2,
-3.678000e-3,-3.00e-2,
-3.676000e-3,-3.00e-2,
-3.674000e-3,-2.80e-2,
-3.672000e-3,-2.80e-2,
-3.670000e-3,-2.80e-2,
-3.668000e-3,-2.80e-2,
-3.666000e-3,-2.80e-2,
-3.664000e-3,-2.80e-2,
-3.662000e-3,-2.60e-2,
-3.660000e-3,-2.60e-2,
-3.658000e-3,-2.80e-2,
-3.656000e-3,-2.80e-2,
-3.654000e-3,-2.60e-2,
-3.652000e-3,-2.60e-2,
-3.650000e-3,-2.80e-2,
-3.648000e-3,-2.80e-2,
-3.646000e-3,-2.80e-2,
-3.644000e-3,-2.80e-2,
-3.642000e-3,-2.80e-2,
-3.640000e-3,-2.80e-2,
-3.638000e-3,-2.80e-2,
-3.636000e-3,-2.80e-2,
-3.634000e-3,-3.20e-2,
-3.632000e-3,-3.20e-2,
-3.630000e-3,-2.80e-2,
-3.628000e-3,-2.80e-2,
-3.626000e-3,-3.20e-2,
-3.624000e-3,-3.20e-2,
-3.622000e-3,-3.00e-2,
-3.620000e-3,-3.00e-2,
-3.618000e-3,-3.00e-2,
-3.616000e-3,-3.00e-2,
-3.614000e-3,-2.80e-2,
-3.612000e-3,-2.80e-2,
-3.610000e-3,-2.80e-2,
-3.608000e-3,-2.80e-2,
-3.606000e-3,-3.20e-2,
-3.604000e-3,-3.20e-2,
-3.602000e-3,-3.00e-2,
-3.600000e-3,-3.00e-2,
-3.598000e-3,-3.20e-2,
-3.596000e-3,-3.20e-2,
-3.594000e-3,-3.00e-2,
-3.592000e-3,-3.00e-2,
-3.590000e-3,-3.00e-2,
-3.588000e-3,-3.00e-2,
-3.586000e-3,-3.20e-2,
-3.584000e-3,-3.20e-2,
-3.582000e-3,-3.00e-2,
-3.580000e-3,-3.00e-2,
-3.578000e-3,-3.20e-2,
-3.576000e-3,-3.20e-2,
-3.574000e-3,-3.00e-2,
-3.572000e-3,-3.00e-2,
-3.570000e-3,-3.00e-2,
-3.568000e-3,-3.00e-2,
-3.566000e-3,-3.00e-2,
-3.564000e-3,-3.00e-2,
-3.562000e-3,-3.20e-2,
-3.560000e-3,-3.20e-2,
-3.558000e-3,-3.40e-2,
-3.556000e-3,-3.40e-2,
-3.554000e-3,-3.20e-2,
-3.552000e-3,-3.20e-2,
-3.550000e-3,-3.40e-2,
-3.548000e-3,-3.40e-2,
-3.546000e-3,-3.20e-2,
-3.544000e-3,-3.20e-2,
-3.542000e-3,-3.40e-2,
-3.540000e-3,-3.40e-2,
-3.538000e-3,-3.20e-2,
-3.536000e-3,-3.20e-2,
-3.534000e-3,-3.20e-2,
-3.532000e-3,-3.20e-2,
-3.530000e-3,-3.40e-2,
-3.528000e-3,-3.40e-2,
-3.526000e-3,-3.40e-2,
-3.524000e-3,-3.40e-2,
-3.522000e-3,-3.20e-2,
-3.520000e-3,-3.20e-2,
-3.518000e-3,-3.40e-2,
-3.516000e-3,-3.40e-2,
-3.514000e-3,-3.40e-2,
-3.512000e-3,-3.40e-2,
-3.510000e-3,-3.20e-2,
-3.508000e-3,-3.20e-2,
-3.506000e-3,-3.40e-2,
-3.504000e-3,-3.40e-2,
-3.502000e-3,-3.60e-2,
-3.500000e-3,-3.60e-2,
-3.498000e-3,-3.60e-2,
-3.496000e-3,-3.60e-2,
-3.494000e-3,-3.40e-2,
-3.492000e-3,-3.40e-2,
-3.490000e-3,-3.60e-2,
-3.488000e-3,-3.60e-2,
-3.486000e-3,-3.40e-2,
-3.484000e-3,-3.40e-2,
-3.482000e-3,-3.40e-2,
-3.480000e-3,-3.40e-2,
-3.478000e-3,-3.40e-2,
-3.476000e-3,-3.40e-2,
-3.474000e-3,-3.40e-2,
-3.472000e-3,-3.40e-2,
-3.470000e-3,-3.60e-2,
-3.468000e-3,-3.60e-2,
-3.466000e-3,-3.60e-2,
-3.464000e-3,-3.60e-2,
-3.462000e-3,-3.60e-2,
-3.460000e-3,-3.60e-2,
-3.458000e-3,-3.60e-2,
-3.456000e-3,-3.60e-2,
-3.454000e-3,-3.60e-2,
-3.452000e-3,-3.60e-2,
-3.450000e-3,-3.60e-2,
-3.448000e-3,-3.60e-2,
-3.446000e-3,-3.60e-2,
-3.444000e-3,-3.60e-2,
-3.442000e-3,-3.60e-2,
-3.440000e-3,-3.60e-2,
-3.438000e-3,-3.60e-2,
-3.436000e-3,-3.60e-2,
-3.434000e-3,-3.60e-2,
-3.432000e-3,-3.60e-2,
-3.430000e-3,-3.60e-2,
-3.428000e-3,-3.60e-2,
-3.426000e-3,-3.60e-2,
-3.424000e-3,-3.60e-2,
-3.422000e-3,-3.60e-2,
-3.420000e-3,-3.60e-2,
-3.418000e-3,-3.80e-2,
-3.416000e-3,-3.80e-2,
-3.414000e-3,-3.80e-2,
-3.412000e-3,-3.80e-2,
-3.410000e-3,-3.60e-2,
-3.408000e-3,-3.60e-2,
-3.406000e-3,-3.60e-2,
-3.404000e-3,-3.60e-2,
-3.402000e-3,-3.80e-2,
-3.400000e-3,-3.80e-2,
-3.398000e-3,-3.80e-2,
-3.396000e-3,-3.80e-2,
-3.394000e-3,-3.80e-2,
-3.392000e-3,-3.80e-2,
-3.390000e-3,-3.60e-2,
-3.388000e-3,-3.60e-2,
-3.386000e-3,-3.80e-2,
-3.384000e-3,-3.80e-2,
-3.382000e-3,-3.80e-2,
-3.380000e-3,-3.80e-2,
-3.378000e-3,-3.80e-2,
-3.376000e-3,-3.80e-2,
-3.374000e-3,-3.80e-2,
-3.372000e-3,-3.80e-2,
-3.370000e-3,-3.80e-2,
-3.368000e-3,-3.80e-2,
-3.366000e-3,-4.00e-2,
-3.364000e-3,-4.00e-2,
-3.362000e-3,-3.80e-2,
-3.360000e-3,-3.80e-2,
-3.358000e-3,-4.00e-2,
-3.356000e-3,-4.00e-2,
-3.354000e-3,-3.80e-2,
-3.352000e-3,-3.80e-2,
-3.350000e-3,-3.80e-2,
-3.348000e-3,-3.80e-2,
-3.346000e-3,-4.00e-2,
-3.344000e-3,-4.00e-2,
-3.342000e-3,-4.00e-2,
-3.340000e-3,-4.00e-2,
-3.338000e-3,-4.00e-2,
-3.336000e-3,-4.00e-2,
-3.334000e-3,-3.80e-2,
-3.332000e-3,-3.80e-2,
-3.330000e-3,-3.80e-2,
-3.328000e-3,-3.80e-2,
-3.326000e-3,-4.00e-2,
-3.324000e-3,-4.00e-2,
-3.322000e-3,-4.20e-2,
-3.320000e-3,-4.20e-2,
-3.318000e-3,-4.00e-2,
-3.316000e-3,-4.00e-2,
-3.314000e-3,-4.00e-2,
-3.312000e-3,-4.00e-2,
-3.310000e-3,-3.80e-2,
-3.308000e-3,-3.80e-2,
-3.306000e-3,-4.00e-2,
-3.304000e-3,-4.00e-2,
-3.302000e-3,-4.00e-2,
-3.300000e-3,-4.00e-2,
-3.298000e-3,-4.20e-2,
-3.296000e-3,-4.20e-2,
-3.294000e-3,-4.00e-2,
-3.292000e-3,-4.00e-2,
-3.290000e-3,-4.40e-2,
-3.288000e-3,-4.40e-2,
-3.286000e-3,-4.20e-2,
-3.284000e-3,-4.20e-2,
-3.282000e-3,-4.20e-2,
-3.280000e-3,-4.20e-2,
-3.278000e-3,-4.20e-2,
-3.276000e-3,-4.20e-2,
-3.274000e-3,-4.00e-2,
-3.272000e-3,-4.00e-2,
-3.270000e-3,-4.00e-2,
-3.268000e-3,-4.00e-2,
-3.266000e-3,-4.00e-2,
-3.264000e-3,-4.00e-2,
-3.262000e-3,-4.40e-2,
-3.260000e-3,-4.40e-2,
-3.258000e-3,-4.20e-2,
-3.256000e-3,-4.20e-2,
-3.254000e-3,-4.20e-2,
-3.252000e-3,-4.20e-2,
-3.250000e-3,-4.20e-2,
-3.248000e-3,-4.20e-2,
-3.246000e-3,-4.20e-2,
-3.244000e-3,-4.20e-2,
-3.242000e-3,-4.40e-2,
-3.240000e-3,-4.40e-2,
-3.238000e-3,-4.40e-2,
-3.236000e-3,-4.40e-2,
-3.234000e-3,-4.20e-2,
-3.232000e-3,-4.20e-2,
-3.230000e-3,-4.40e-2,
-3.228000e-3,-4.40e-2,
-3.226000e-3,-4.40e-2,
-3.224000e-3,-4.40e-2,
-3.222000e-3,-4.20e-2,
-3.220000e-3,-4.20e-2,
-3.218000e-3,-4.40e-2,
-3.216000e-3,-4.40e-2,
-3.214000e-3,-4.40e-2,
-3.212000e-3,-4.40e-2,
-3.210000e-3,-4.40e-2,
-3.208000e-3,-4.40e-2,
-3.206000e-3,-4.40e-2,
-3.204000e-3,-4.40e-2,
-3.202000e-3,-4.40e-2,
-3.200000e-3,-4.40e-2,
-3.198000e-3,-4.40e-2,
-3.196000e-3,-4.40e-2,
-3.194000e-3,-4.40e-2,
-3.192000e-3,-4.40e-2,
-3.190000e-3,-4.40e-2,
-3.188000e-3,-4.40e-2,
-3.186000e-3,-4.60e-2,
-3.184000e-3,-4.60e-2,
-3.182000e-3,-4.60e-2,
-3.180000e-3,-4.60e-2,
-3.178000e-3,-4.60e-2,
-3.176000e-3,-4.60e-2,
-3.174000e-3,-4.40e-2,
-3.172000e-3,-4.40e-2,
-3.170000e-3,-4.60e-2,
-3.168000e-3,-4.60e-2,
-3.166000e-3,-4.60e-2,
-3.164000e-3,-4.60e-2,
-3.162000e-3,-4.40e-2,
-3.160000e-3,-4.40e-2,
-3.158000e-3,-4.40e-2,
-3.156000e-3,-4.40e-2,
-3.154000e-3,-4.60e-2,
-3.152000e-3,-4.60e-2,
-3.150000e-3,-5.00e-2,
-3.148000e-3,-5.00e-2,
-3.146000e-3,-4.80e-2,
-3.144000e-3,-4.80e-2,
-3.142000e-3,-4.60e-2,
-3.140000e-3,-4.60e-2,
-3.138000e-3,-4.80e-2,
-3.136000e-3,-4.80e-2,
-3.134000e-3,-4.80e-2,
-3.132000e-3,-4.80e-2,
-3.130000e-3,-4.60e-2,
-3.128000e-3,-4.60e-2,
-3.126000e-3,-4.60e-2,
-3.124000e-3,-4.60e-2,
-3.122000e-3,-4.60e-2,
-3.120000e-3,-4.60e-2,
-3.118000e-3,-4.80e-2,
-3.116000e-3,-4.80e-2,
-3.114000e-3,-4.40e-2,
-3.112000e-3,-4.40e-2,
-3.110000e-3,-4.80e-2,
-3.108000e-3,-4.80e-2,
-3.106000e-3,-4.80e-2,
-3.104000e-3,-4.80e-2,
-3.102000e-3,-4.60e-2,
-3.100000e-3,-4.60e-2,
-3.098000e-3,-5.00e-2,
-3.096000e-3,-5.00e-2,
-3.094000e-3,-5.00e-2,
-3.092000e-3,-5.00e-2,
-3.090000e-3,-5.00e-2,
-3.088000e-3,-5.00e-2,
-3.086000e-3,-5.00e-2,
-3.084000e-3,-5.00e-2,
-3.082000e-3,-4.80e-2,
-3.080000e-3,-4.80e-2,
-3.078000e-3,-5.00e-2,
-3.076000e-3,-5.00e-2,
-3.074000e-3,-4.80e-2,
-3.072000e-3,-4.80e-2,
-3.070000e-3,-5.00e-2,
-3.068000e-3,-5.00e-2,
-3.066000e-3,-5.00e-2,
-3.064000e-3,-5.00e-2,
-3.062000e-3,-5.00e-2,
-3.060000e-3,-5.00e-2,
-3.058000e-3,-5.00e-2,
-3.056000e-3,-5.00e-2,
-3.054000e-3,-5.00e-2,
-3.052000e-3,-5.00e-2,
-3.050000e-3,-5.00e-2,
-3.048000e-3,-5.00e-2,
-3.046000e-3,-5.00e-2,
-3.044000e-3,-5.00e-2,
-3.042000e-3,-5.00e-2,
-3.040000e-3,-5.00e-2,
-3.038000e-3,-5.00e-2,
-3.036000e-3,-5.00e-2,
-3.034000e-3,-5.00e-2,
-3.032000e-3,-5.00e-2,
-3.030000e-3,-4.80e-2,
-3.028000e-3,-4.80e-2,
-3.026000e-3,-5.20e-2,
-3.024000e-3,-5.20e-2,
-3.022000e-3,-5.20e-2,
-3.020000e-3,-5.20e-2,
-3.018000e-3,-5.20e-2,
-3.016000e-3,-5.20e-2,
-3.014000e-3,-5.20e-2,
-3.012000e-3,-5.20e-2,
-3.010000e-3,-5.20e-2,
-3.008000e-3,-5.20e-2,
-3.006000e-3,-5.20e-2,
-3.004000e-3,-5.20e-2,
-3.002000e-3,-4.80e-2,
-3.000000e-3,-4.80e-2,
-2.998000e-3,-5.00e-2,
-2.996000e-3,-5.00e-2,
-2.994000e-3,-5.20e-2,
-2.992000e-3,-5.20e-2,
-2.990000e-3,-5.20e-2,
-2.988000e-3,-5.20e-2,
-2.986000e-3,-5.40e-2,
-2.984000e-3,-5.40e-2,
-2.982000e-3,-5.20e-2,
-2.980000e-3,-5.20e-2,
-2.978000e-3,-5.20e-2,
-2.976000e-3,-5.20e-2,
-2.974000e-3,-5.20e-2,
-2.972000e-3,-5.20e-2,
-2.970000e-3,-5.20e-2,
-2.968000e-3,-5.20e-2,
-2.966000e-3,-5.60e-2,
-2.964000e-3,-5.60e-2,
-2.962000e-3,-5.20e-2,
-2.960000e-3,-5.20e-2,
-2.958000e-3,-5.20e-2,
-2.956000e-3,-5.20e-2,
-2.954000e-3,-5.20e-2,
-2.952000e-3,-5.20e-2,
-2.950000e-3,-5.20e-2,
-2.948000e-3,-5.20e-2,
-2.946000e-3,-5.40e-2,
-2.944000e-3,-5.40e-2,
-2.942000e-3,-5.60e-2,
-2.940000e-3,-5.60e-2,
-2.938000e-3,-5.60e-2,
-2.936000e-3,-5.60e-2,
-2.934000e-3,-5.40e-2,
-2.932000e-3,-5.40e-2,
-2.930000e-3,-5.40e-2,
-2.928000e-3,-5.40e-2,
-2.926000e-3,-5.60e-2,
-2.924000e-3,-5.60e-2,
-2.922000e-3,-5.40e-2,
-2.920000e-3,-5.40e-2,
-2.918000e-3,-5.60e-2,
-2.916000e-3,-5.60e-2,
-2.914000e-3,-5.60e-2,
-2.912000e-3,-5.60e-2,
-2.910000e-3,-5.40e-2,
-2.908000e-3,-5.40e-2,
-2.906000e-3,-5.60e-2,
-2.904000e-3,-5.60e-2,
-2.902000e-3,-5.80e-2,
-2.900000e-3,-5.80e-2,
-2.898000e-3,-5.60e-2,
-2.896000e-3,-5.60e-2,
-2.894000e-3,-5.40e-2,
-2.892000e-3,-5.40e-2,
-2.890000e-3,-5.80e-2,
-2.888000e-3,-5.80e-2,
-2.886000e-3,-5.60e-2,
-2.884000e-3,-5.60e-2,
-2.882000e-3,-5.80e-2,
-2.880000e-3,-5.80e-2,
-2.878000e-3,-5.80e-2,
-2.876000e-3,-5.80e-2,
-2.874000e-3,-5.80e-2,
-2.872000e-3,-5.80e-2,
-2.870000e-3,-5.80e-2,
-2.868000e-3,-5.80e-2,
-2.866000e-3,-5.60e-2,
-2.864000e-3,-5.60e-2,
-2.862000e-3,-5.60e-2,
-2.860000e-3,-5.60e-2,
-2.858000e-3,-5.80e-2,
-2.856000e-3,-5.80e-2,
-2.854000e-3,-5.60e-2,
-2.852000e-3,-5.60e-2,
-2.850000e-3,-5.80e-2,
-2.848000e-3,-5.80e-2,
-2.846000e-3,-6.00e-2,
-2.844000e-3,-6.00e-2,
-2.842000e-3,-5.80e-2,
-2.840000e-3,-5.80e-2,
-2.838000e-3,-5.80e-2,
-2.836000e-3,-5.80e-2,
-2.834000e-3,-6.00e-2,
-2.832000e-3,-6.00e-2,
-2.830000e-3,-6.00e-2,
-2.828000e-3,-6.00e-2,
-2.826000e-3,-6.00e-2,
-2.824000e-3,-6.00e-2,
-2.822000e-3,-6.20e-2,
-2.820000e-3,-6.20e-2,
-2.818000e-3,-6.00e-2,
-2.816000e-3,-6.00e-2,
-2.814000e-3,-6.00e-2,
-2.812000e-3,-6.00e-2,
-2.810000e-3,-5.80e-2,
-2.808000e-3,-5.80e-2,
-2.806000e-3,-6.00e-2,
-2.804000e-3,-6.00e-2,
-2.802000e-3,-6.20e-2,
-2.800000e-3,-6.20e-2,
-2.798000e-3,-6.00e-2,
-2.796000e-3,-6.00e-2,
-2.794000e-3,-6.20e-2,
-2.792000e-3,-6.20e-2,
-2.790000e-3,-5.80e-2,
-2.788000e-3,-5.80e-2,
-2.786000e-3,-6.00e-2,
-2.784000e-3,-6.00e-2,
-2.782000e-3,-6.00e-2,
-2.780000e-3,-6.00e-2,
-2.778000e-3,-6.20e-2,
-2.776000e-3,-6.20e-2,
-2.774000e-3,-6.20e-2,
-2.772000e-3,-6.20e-2,
-2.770000e-3,-6.20e-2,
-2.768000e-3,-6.20e-2,
-2.766000e-3,-6.00e-2,
-2.764000e-3,-6.00e-2,
-2.762000e-3,-6.20e-2,
-2.760000e-3,-6.20e-2,
-2.758000e-3,-6.20e-2,
-2.756000e-3,-6.20e-2,
-2.754000e-3,-6.20e-2,
-2.752000e-3,-6.20e-2,
-2.750000e-3,-6.20e-2,
-2.748000e-3,-6.20e-2,
-2.746000e-3,-6.20e-2,
-2.744000e-3,-6.20e-2,
-2.742000e-3,-6.20e-2,
-2.740000e-3,-6.20e-2,
-2.738000e-3,-6.40e-2,
-2.736000e-3,-6.40e-2,
-2.734000e-3,-6.20e-2,
-2.732000e-3,-6.20e-2,
-2.730000e-3,-6.20e-2,
-2.728000e-3,-6.20e-2,
-2.726000e-3,-6.60e-2,
-2.724000e-3,-6.60e-2,
-2.722000e-3,-6.20e-2,
-2.720000e-3,-6.20e-2,
-2.718000e-3,-6.20e-2,
-2.716000e-3,-6.20e-2,
-2.714000e-3,-6.20e-2,
-2.712000e-3,-6.20e-2,
-2.710000e-3,-6.20e-2,
-2.708000e-3,-6.20e-2,
-2.706000e-3,-6.60e-2,
-2.704000e-3,-6.60e-2,
-2.702000e-3,-6.60e-2,
-2.700000e-3,-6.60e-2,
-2.698000e-3,-6.60e-2,
-2.696000e-3,-6.60e-2,
-2.694000e-3,-6.20e-2,
-2.692000e-3,-6.20e-2,
-2.690000e-3,-6.60e-2,
-2.688000e-3,-6.60e-2,
-2.686000e-3,-6.60e-2,
-2.684000e-3,-6.60e-2,
-2.682000e-3,-6.60e-2,
-2.680000e-3,-6.60e-2,
-2.678000e-3,-6.20e-2,
-2.676000e-3,-6.20e-2,
-2.674000e-3,-6.60e-2,
-2.672000e-3,-6.60e-2,
-2.670000e-3,-6.40e-2,
-2.668000e-3,-6.40e-2,
-2.666000e-3,-6.40e-2,
-2.664000e-3,-6.40e-2,
-2.662000e-3,-6.60e-2,
-2.660000e-3,-6.60e-2,
-2.658000e-3,-6.40e-2,
-2.656000e-3,-6.40e-2,
-2.654000e-3,-6.60e-2,
-2.652000e-3,-6.60e-2,
-2.650000e-3,-6.80e-2,
-2.648000e-3,-6.80e-2,
-2.646000e-3,-6.60e-2,
-2.644000e-3,-6.60e-2,
-2.642000e-3,-6.60e-2,
-2.640000e-3,-6.60e-2,
-2.638000e-3,-6.60e-2,
-2.636000e-3,-6.60e-2,
-2.634000e-3,-6.60e-2,
-2.632000e-3,-6.60e-2,
-2.630000e-3,-6.60e-2,
-2.628000e-3,-6.60e-2,
-2.626000e-3,-6.60e-2,
-2.624000e-3,-6.60e-2,
-2.622000e-3,-6.60e-2,
-2.620000e-3,-6.60e-2,
-2.618000e-3,-6.60e-2,
-2.616000e-3,-6.60e-2,
-2.614000e-3,-6.80e-2,
-2.612000e-3,-6.80e-2,
-2.610000e-3,-6.80e-2,
-2.608000e-3,-6.80e-2,
-2.606000e-3,-6.80e-2,
-2.604000e-3,-6.80e-2,
-2.602000e-3,-6.80e-2,
-2.600000e-3,-6.80e-2,
-2.598000e-3,-6.80e-2,
-2.596000e-3,-6.80e-2,
-2.594000e-3,-6.80e-2,
-2.592000e-3,-6.80e-2,
-2.590000e-3,-7.00e-2,
-2.588000e-3,-7.00e-2,
-2.586000e-3,-6.80e-2,
-2.584000e-3,-6.80e-2,
-2.582000e-3,-6.80e-2,
-2.580000e-3,-6.80e-2,
-2.578000e-3,-6.80e-2,
-2.576000e-3,-6.80e-2,
-2.574000e-3,-7.00e-2,
-2.572000e-3,-7.00e-2,
-2.570000e-3,-6.80e-2,
-2.568000e-3,-6.80e-2,
-2.566000e-3,-6.80e-2,
-2.564000e-3,-6.80e-2,
-2.562000e-3,-7.00e-2,
-2.560000e-3,-7.00e-2,
-2.558000e-3,-7.00e-2,
-2.556000e-3,-7.00e-2,
-2.554000e-3,-7.00e-2,
-2.552000e-3,-7.00e-2,
-2.550000e-3,-7.00e-2,
-2.548000e-3,-7.00e-2,
-2.546000e-3,-6.80e-2,
-2.544000e-3,-6.80e-2,
-2.542000e-3,-7.00e-2,
-2.540000e-3,-7.00e-2,
-2.538000e-3,-7.00e-2,
-2.536000e-3,-7.00e-2,
-2.534000e-3,-7.00e-2,
-2.532000e-3,-7.00e-2,
-2.530000e-3,-6.80e-2,
-2.528000e-3,-6.80e-2,
-2.526000e-3,-7.20e-2,
-2.524000e-3,-7.20e-2,
-2.522000e-3,-7.00e-2,
-2.520000e-3,-7.00e-2,
-2.518000e-3,-7.00e-2,
-2.516000e-3,-7.00e-2,
-2.514000e-3,-7.00e-2,
-2.512000e-3,-7.00e-2,
-2.510000e-3,-7.00e-2,
-2.508000e-3,-7.00e-2,
-2.506000e-3,-7.20e-2,
-2.504000e-3,-7.20e-2,
-2.502000e-3,-7.00e-2,
-2.500000e-3,-7.00e-2,
-2.498000e-3,-7.20e-2,
-2.496000e-3,-7.20e-2,
-2.494000e-3,-7.20e-2,
-2.492000e-3,-7.20e-2,
-2.490000e-3,-7.00e-2,
-2.488000e-3,-7.00e-2,
-2.486000e-3,-7.20e-2,
-2.484000e-3,-7.20e-2,
-2.482000e-3,-7.00e-2,
-2.480000e-3,-7.00e-2,
-2.478000e-3,-6.80e-2,
-2.476000e-3,-6.80e-2,
-2.474000e-3,-7.20e-2,
-2.472000e-3,-7.20e-2,
-2.470000e-3,-7.20e-2,
-2.468000e-3,-7.20e-2,
-2.466000e-3,-7.20e-2,
-2.464000e-3,-7.20e-2,
-2.462000e-3,-7.20e-2,
-2.460000e-3,-7.20e-2,
-2.458000e-3,-7.20e-2,
-2.456000e-3,-7.20e-2,
-2.454000e-3,-7.20e-2,
-2.452000e-3,-7.20e-2,
-2.450000e-3,-7.20e-2,
-2.448000e-3,-7.20e-2,
-2.446000e-3,-7.20e-2,
-2.444000e-3,-7.20e-2,
-2.442000e-3,-7.20e-2,
-2.440000e-3,-7.20e-2,
-2.438000e-3,-7.20e-2,
-2.436000e-3,-7.20e-2,
-2.434000e-3,-7.40e-2,
-2.432000e-3,-7.40e-2,
-2.430000e-3,-7.20e-2,
-2.428000e-3,-7.20e-2,
-2.426000e-3,-7.40e-2,
-2.424000e-3,-7.40e-2,
-2.422000e-3,-7.20e-2,
-2.420000e-3,-7.20e-2,
-2.418000e-3,-7.40e-2,
-2.416000e-3,-7.40e-2,
-2.414000e-3,-7.20e-2,
-2.412000e-3,-7.20e-2,
-2.410000e-3,-7.40e-2,
-2.408000e-3,-7.40e-2,
-2.406000e-3,-7.20e-2,
-2.404000e-3,-7.20e-2,
-2.402000e-3,-7.40e-2,
-2.400000e-3,-7.40e-2,
-2.398000e-3,-7.40e-2,
-2.396000e-3,-7.40e-2,
-2.394000e-3,-7.60e-2,
-2.392000e-3,-7.60e-2,
-2.390000e-3,-7.40e-2,
-2.388000e-3,-7.40e-2,
-2.386000e-3,-7.40e-2,
-2.384000e-3,-7.40e-2,
-2.382000e-3,-7.40e-2,
-2.380000e-3,-7.40e-2,
-2.378000e-3,-7.40e-2,
-2.376000e-3,-7.40e-2,
-2.374000e-3,-7.40e-2,
-2.372000e-3,-7.40e-2,
-2.370000e-3,-7.40e-2,
-2.368000e-3,-7.40e-2,
-2.366000e-3,-7.40e-2,
-2.364000e-3,-7.40e-2,
-2.362000e-3,-7.60e-2,
-2.360000e-3,-7.60e-2,
-2.358000e-3,-7.80e-2,
-2.356000e-3,-7.80e-2,
-2.354000e-3,-7.60e-2,
-2.352000e-3,-7.60e-2,
-2.350000e-3,-7.80e-2,
-2.348000e-3,-7.80e-2,
-2.346000e-3,-7.60e-2,
-2.344000e-3,-7.60e-2,
-2.342000e-3,-7.60e-2,
-2.340000e-3,-7.60e-2,
-2.338000e-3,-7.60e-2,
-2.336000e-3,-7.60e-2,
-2.334000e-3,-7.80e-2,
-2.332000e-3,-7.80e-2,
-2.330000e-3,-7.40e-2,
-2.328000e-3,-7.40e-2,
-2.326000e-3,-7.60e-2,
-2.324000e-3,-7.60e-2,
-2.322000e-3,-7.60e-2,
-2.320000e-3,-7.60e-2,
-2.318000e-3,-7.60e-2,
-2.316000e-3,-7.60e-2,
-2.314000e-3,-7.80e-2,
-2.312000e-3,-7.80e-2,
-2.310000e-3,-7.80e-2,
-2.308000e-3,-7.80e-2,
-2.306000e-3,-7.60e-2,
-2.304000e-3,-7.60e-2,
-2.302000e-3,-7.60e-2,
-2.300000e-3,-7.60e-2,
-2.298000e-3,-7.80e-2,
-2.296000e-3,-7.80e-2,
-2.294000e-3,-7.60e-2,
-2.292000e-3,-7.60e-2,
-2.290000e-3,-7.80e-2,
-2.288000e-3,-7.80e-2,
-2.286000e-3,-8.00e-2,
-2.284000e-3,-8.00e-2,
-2.282000e-3,-7.80e-2,
-2.280000e-3,-7.80e-2,
-2.278000e-3,-7.80e-2,
-2.276000e-3,-7.80e-2,
-2.274000e-3,-8.00e-2,
-2.272000e-3,-8.00e-2,
-2.270000e-3,-8.00e-2,
-2.268000e-3,-8.00e-2,
-2.266000e-3,-8.00e-2,
-2.264000e-3,-8.00e-2,
-2.262000e-3,-7.80e-2,
-2.260000e-3,-7.80e-2,
-2.258000e-3,-8.00e-2,
-2.256000e-3,-8.00e-2,
-2.254000e-3,-8.00e-2,
-2.252000e-3,-8.00e-2,
-2.250000e-3,-8.00e-2,
-2.248000e-3,-8.00e-2,
-2.246000e-3,-8.00e-2,
-2.244000e-3,-8.00e-2,
-2.242000e-3,-7.80e-2,
-2.240000e-3,-7.80e-2,
-2.238000e-3,-7.80e-2,
-2.236000e-3,-7.80e-2,
-2.234000e-3,-8.00e-2,
-2.232000e-3,-8.00e-2,
-2.230000e-3,-8.00e-2,
-2.228000e-3,-8.00e-2,
-2.226000e-3,-8.20e-2,
-2.224000e-3,-8.20e-2,
-2.222000e-3,-8.20e-2,
-2.220000e-3,-8.20e-2,
-2.218000e-3,-8.00e-2,
-2.216000e-3,-8.00e-2,
-2.214000e-3,-8.00e-2,
-2.212000e-3,-8.00e-2,
-2.210000e-3,-8.20e-2,
-2.208000e-3,-8.20e-2,
-2.206000e-3,-8.00e-2,
-2.204000e-3,-8.00e-2,
-2.202000e-3,-8.00e-2,
-2.200000e-3,-8.00e-2,
-2.198000e-3,-8.20e-2,
-2.196000e-3,-8.20e-2,
-2.194000e-3,-8.20e-2,
-2.192000e-3,-8.20e-2,
-2.190000e-3,-8.20e-2,
-2.188000e-3,-8.20e-2,
-2.186000e-3,-8.20e-2,
-2.184000e-3,-8.20e-2,
-2.182000e-3,-8.20e-2,
-2.180000e-3,-8.20e-2,
-2.178000e-3,-8.00e-2,
-2.176000e-3,-8.00e-2,
-2.174000e-3,-8.00e-2,
-2.172000e-3,-8.00e-2,
-2.170000e-3,-8.20e-2,
-2.168000e-3,-8.20e-2,
-2.166000e-3,-7.80e-2,
-2.164000e-3,-7.80e-2,
-2.162000e-3,-8.20e-2,
-2.160000e-3,-8.20e-2,
-2.158000e-3,-8.00e-2,
-2.156000e-3,-8.00e-2,
-2.154000e-3,-8.00e-2,
-2.152000e-3,-8.00e-2,
-2.150000e-3,-7.80e-2,
-2.148000e-3,-7.80e-2,
-2.146000e-3,-8.00e-2,
-2.144000e-3,-8.00e-2,
-2.142000e-3,-8.00e-2,
-2.140000e-3,-8.00e-2,
-2.138000e-3,-8.00e-2,
-2.136000e-3,-8.00e-2,
-2.134000e-3,-8.00e-2,
-2.132000e-3,-8.00e-2,
-2.130000e-3,-8.00e-2,
-2.128000e-3,-8.00e-2,
-2.126000e-3,-8.00e-2,
-2.124000e-3,-8.00e-2,
-2.122000e-3,-7.60e-2,
-2.120000e-3,-7.60e-2,
-2.118000e-3,-8.00e-2,
-2.116000e-3,-8.00e-2,
-2.114000e-3,-7.80e-2,
-2.112000e-3,-7.80e-2,
-2.110000e-3,-7.60e-2,
-2.108000e-3,-7.60e-2,
-2.106000e-3,-7.60e-2,
-2.104000e-3,-7.60e-2,
-2.102000e-3,-7.60e-2,
-2.100000e-3,-7.60e-2,
-2.098000e-3,-7.80e-2,
-2.096000e-3,-7.80e-2,
-2.094000e-3,-8.00e-2,
-2.092000e-3,-8.00e-2,
-2.090000e-3,-7.80e-2,
-2.088000e-3,-7.80e-2,
-2.086000e-3,-7.80e-2,
-2.084000e-3,-7.80e-2,
-2.082000e-3,-7.80e-2,
-2.080000e-3,-7.80e-2,
-2.078000e-3,-7.60e-2,
-2.076000e-3,-7.60e-2,
-2.074000e-3,-7.60e-2,
-2.072000e-3,-7.60e-2,
-2.070000e-3,-7.60e-2,
-2.068000e-3,-7.60e-2,
-2.066000e-3,-7.60e-2,
-2.064000e-3,-7.60e-2,
-2.062000e-3,-7.60e-2,
-2.060000e-3,-7.60e-2,
-2.058000e-3,-7.60e-2,
-2.056000e-3,-7.60e-2,
-2.054000e-3,-7.80e-2,
-2.052000e-3,-7.80e-2,
-2.050000e-3,-7.80e-2,
-2.048000e-3,-7.80e-2,
-2.046000e-3,-7.60e-2,
-2.044000e-3,-7.60e-2,
-2.042000e-3,-7.60e-2,
-2.040000e-3,-7.60e-2,
-2.038000e-3,-7.60e-2,
-2.036000e-3,-7.60e-2,
-2.034000e-3,-7.40e-2,
-2.032000e-3,-7.40e-2,
-2.030000e-3,-7.60e-2,
-2.028000e-3,-7.60e-2,
-2.026000e-3,-7.40e-2,
-2.024000e-3,-7.40e-2,
-2.022000e-3,-7.40e-2,
-2.020000e-3,-7.40e-2,
-2.018000e-3,-7.40e-2,
-2.016000e-3,-7.40e-2,
-2.014000e-3,-7.20e-2,
-2.012000e-3,-7.20e-2,
-2.010000e-3,-7.40e-2,
-2.008000e-3,-7.40e-2,
-2.006000e-3,-7.60e-2,
-2.004000e-3,-7.60e-2,
-2.002000e-3,-7.40e-2,
-2.000000e-3,-7.40e-2,
-1.998000e-3,-7.40e-2,
-1.996000e-3,-7.40e-2,
-1.994000e-3,-7.20e-2,
-1.992000e-3,-7.20e-2,
-1.990000e-3,-7.60e-2,
-1.988000e-3,-7.60e-2,
-1.986000e-3,-7.40e-2,
-1.984000e-3,-7.40e-2,
-1.982000e-3,-7.40e-2,
-1.980000e-3,-7.40e-2,
-1.978000e-3,-7.40e-2,
-1.976000e-3,-7.40e-2,
-1.974000e-3,-7.40e-2,
-1.972000e-3,-7.40e-2,
-1.970000e-3,-7.20e-2,
-1.968000e-3,-7.20e-2,
-1.966000e-3,-7.20e-2,
-1.964000e-3,-7.20e-2,
-1.962000e-3,-7.20e-2,
-1.960000e-3,-7.20e-2,
-1.958000e-3,-7.20e-2,
-1.956000e-3,-7.20e-2,
-1.954000e-3,-7.20e-2,
-1.952000e-3,-7.20e-2,
-1.950000e-3,-7.40e-2,
-1.948000e-3,-7.40e-2,
-1.946000e-3,-7.20e-2,
-1.944000e-3,-7.20e-2,
-1.942000e-3,-7.20e-2,
-1.940000e-3,-7.20e-2,
-1.938000e-3,-7.20e-2,
-1.936000e-3,-7.20e-2,
-1.934000e-3,-7.20e-2,
-1.932000e-3,-7.20e-2,
-1.930000e-3,-7.20e-2,
-1.928000e-3,-7.20e-2,
-1.926000e-3,-7.20e-2,
-1.924000e-3,-7.20e-2,
-1.922000e-3,-7.40e-2,
-1.920000e-3,-7.40e-2,
-1.918000e-3,-7.20e-2,
-1.916000e-3,-7.20e-2,
-1.914000e-3,-6.80e-2,
-1.912000e-3,-6.80e-2,
-1.910000e-3,-7.00e-2,
-1.908000e-3,-7.00e-2,
-1.906000e-3,-7.20e-2,
-1.904000e-3,-7.20e-2,
-1.902000e-3,-6.80e-2,
-1.900000e-3,-6.80e-2,
-1.898000e-3,-7.20e-2,
-1.896000e-3,-7.20e-2,
-1.894000e-3,-7.20e-2,
-1.892000e-3,-7.20e-2,
-1.890000e-3,-7.20e-2,
-1.888000e-3,-7.20e-2,
-1.886000e-3,-7.00e-2,
-1.884000e-3,-7.00e-2,
-1.882000e-3,-7.00e-2,
-1.880000e-3,-7.00e-2,
-1.878000e-3,-7.00e-2,
-1.876000e-3,-7.00e-2,
-1.874000e-3,-7.20e-2,
-1.872000e-3,-7.20e-2,
-1.870000e-3,-7.20e-2,
-1.868000e-3,-7.20e-2,
-1.866000e-3,-7.00e-2,
-1.864000e-3,-7.00e-2,
-1.862000e-3,-7.20e-2,
-1.860000e-3,-7.20e-2,
-1.858000e-3,-7.00e-2,
-1.856000e-3,-7.00e-2,
-1.854000e-3,-7.00e-2,
-1.852000e-3,-7.00e-2,
-1.850000e-3,-7.00e-2,
-1.848000e-3,-7.00e-2,
-1.846000e-3,-7.00e-2,
-1.844000e-3,-7.00e-2,
-1.842000e-3,-7.00e-2,
-1.840000e-3,-7.00e-2,
-1.838000e-3,-7.00e-2,
-1.836000e-3,-7.00e-2,
-1.834000e-3,-7.20e-2,
-1.832000e-3,-7.20e-2,
-1.830000e-3,-7.00e-2,
-1.828000e-3,-7.00e-2,
-1.826000e-3,-6.80e-2,
-1.824000e-3,-6.80e-2,
-1.822000e-3,-7.00e-2,
-1.820000e-3,-7.00e-2,
-1.818000e-3,-6.80e-2,
-1.816000e-3,-6.80e-2,
-1.814000e-3,-6.80e-2,
-1.812000e-3,-6.80e-2,
-1.810000e-3,-6.80e-2,
-1.808000e-3,-6.80e-2,
-1.806000e-3,-6.80e-2,
-1.804000e-3,-6.80e-2,
-1.802000e-3,-6.80e-2,
-1.800000e-3,-6.80e-2,
-1.798000e-3,-6.80e-2,
-1.796000e-3,-6.80e-2,
-1.794000e-3,-6.60e-2,
-1.792000e-3,-6.60e-2,
-1.790000e-3,-6.80e-2,
-1.788000e-3,-6.80e-2,
-1.786000e-3,-6.60e-2,
-1.784000e-3,-6.60e-2,
-1.782000e-3,-6.60e-2,
-1.780000e-3,-6.60e-2,
-1.778000e-3,-6.60e-2,
-1.776000e-3,-6.60e-2,
-1.774000e-3,-6.80e-2,
-1.772000e-3,-6.80e-2,
-1.770000e-3,-6.60e-2,
-1.768000e-3,-6.60e-2,
-1.766000e-3,-6.80e-2,
-1.764000e-3,-6.80e-2,
-1.762000e-3,-6.80e-2,
-1.760000e-3,-6.80e-2,
-1.758000e-3,-6.60e-2,
-1.756000e-3,-6.60e-2,
-1.754000e-3,-6.60e-2,
-1.752000e-3,-6.60e-2,
-1.750000e-3,-6.60e-2,
-1.748000e-3,-6.60e-2,
-1.746000e-3,-6.60e-2,
-1.744000e-3,-6.60e-2,
-1.742000e-3,-6.60e-2,
-1.740000e-3,-6.60e-2,
-1.738000e-3,-6.60e-2,
-1.736000e-3,-6.60e-2,
-1.734000e-3,-6.80e-2,
-1.732000e-3,-6.80e-2,
-1.730000e-3,-6.60e-2,
-1.728000e-3,-6.60e-2,
-1.726000e-3,-6.60e-2,
-1.724000e-3,-6.60e-2,
-1.722000e-3,-6.20e-2,
-1.720000e-3,-6.20e-2,
-1.718000e-3,-6.40e-2,
-1.716000e-3,-6.40e-2,
-1.714000e-3,-6.40e-2,
-1.712000e-3,-6.40e-2,
-1.710000e-3,-6.40e-2,
-1.708000e-3,-6.40e-2,
-1.706000e-3,-6.40e-2,
-1.704000e-3,-6.40e-2,
-1.702000e-3,-6.60e-2,
-1.700000e-3,-6.60e-2,
-1.698000e-3,-6.40e-2,
-1.696000e-3,-6.40e-2,
-1.694000e-3,-6.20e-2,
-1.692000e-3,-6.20e-2,
-1.690000e-3,-6.40e-2,
-1.688000e-3,-6.40e-2,
-1.686000e-3,-6.40e-2,
-1.684000e-3,-6.40e-2,
-1.682000e-3,-6.40e-2,
-1.680000e-3,-6.40e-2,
-1.678000e-3,-6.40e-2,
-1.676000e-3,-6.40e-2,
-1.674000e-3,-6.40e-2,
-1.672000e-3,-6.40e-2,
-1.670000e-3,-6.20e-2,
-1.668000e-3,-6.20e-2,
-1.666000e-3,-6.20e-2,
-1.664000e-3,-6.20e-2,
-1.662000e-3,-6.40e-2,
-1.660000e-3,-6.40e-2,
-1.658000e-3,-6.20e-2,
-1.656000e-3,-6.20e-2,
-1.654000e-3,-6.20e-2,
-1.652000e-3,-6.20e-2,
-1.650000e-3,-6.20e-2,
-1.648000e-3,-6.20e-2,
-1.646000e-3,-6.00e-2,
-1.644000e-3,-6.00e-2,
-1.642000e-3,-6.40e-2,
-1.640000e-3,-6.40e-2,
-1.638000e-3,-6.00e-2,
-1.636000e-3,-6.00e-2,
-1.634000e-3,-6.20e-2,
-1.632000e-3,-6.20e-2,
-1.630000e-3,-6.40e-2,
-1.628000e-3,-6.40e-2,
-1.626000e-3,-6.20e-2,
-1.624000e-3,-6.20e-2,
-1.622000e-3,-6.00e-2,
-1.620000e-3,-6.00e-2,
-1.618000e-3,-6.00e-2,
-1.616000e-3,-6.00e-2,
-1.614000e-3,-6.00e-2,
-1.612000e-3,-6.00e-2,
-1.610000e-3,-6.00e-2,
-1.608000e-3,-6.00e-2,
-1.606000e-3,-5.80e-2,
-1.604000e-3,-5.80e-2,
-1.602000e-3,-6.00e-2,
-1.600000e-3,-6.00e-2,
-1.598000e-3,-6.20e-2,
-1.596000e-3,-6.20e-2,
-1.594000e-3,-6.00e-2,
-1.592000e-3,-6.00e-2,
-1.590000e-3,-5.80e-2,
-1.588000e-3,-5.80e-2,
-1.586000e-3,-6.00e-2,
-1.584000e-3,-6.00e-2,
-1.582000e-3,-5.80e-2,
-1.580000e-3,-5.80e-2,
-1.578000e-3,-6.00e-2,
-1.576000e-3,-6.00e-2,
-1.574000e-3,-6.00e-2,
-1.572000e-3,-6.00e-2,
-1.570000e-3,-6.00e-2,
-1.568000e-3,-6.00e-2,
-1.566000e-3,-6.00e-2,
-1.564000e-3,-6.00e-2,
-1.562000e-3,-5.80e-2,
-1.560000e-3,-5.80e-2,
-1.558000e-3,-5.80e-2,
-1.556000e-3,-5.80e-2,
-1.554000e-3,-6.00e-2,
-1.552000e-3,-6.00e-2,
-1.550000e-3,-5.80e-2,
-1.548000e-3,-5.80e-2,
-1.546000e-3,-5.60e-2,
-1.544000e-3,-5.60e-2,
-1.542000e-3,-5.60e-2,
-1.540000e-3,-5.60e-2,
-1.538000e-3,-5.60e-2,
-1.536000e-3,-5.60e-2,
-1.534000e-3,-5.80e-2,
-1.532000e-3,-5.80e-2,
-1.530000e-3,-5.80e-2,
-1.528000e-3,-5.80e-2,
-1.526000e-3,-5.60e-2,
-1.524000e-3,-5.60e-2,
-1.522000e-3,-5.60e-2,
-1.520000e-3,-5.60e-2,
-1.518000e-3,-5.60e-2,
-1.516000e-3,-5.60e-2,
-1.514000e-3,-5.60e-2,
-1.512000e-3,-5.60e-2,
-1.510000e-3,-5.40e-2,
-1.508000e-3,-5.40e-2,
-1.506000e-3,-5.60e-2,
-1.504000e-3,-5.60e-2,
-1.502000e-3,-5.40e-2,
-1.500000e-3,-5.40e-2,
-1.498000e-3,-5.40e-2,
-1.496000e-3,-5.40e-2,
-1.494000e-3,-5.40e-2,
-1.492000e-3,-5.40e-2,
-1.490000e-3,-5.60e-2,
-1.488000e-3,-5.60e-2,
-1.486000e-3,-5.80e-2,
-1.484000e-3,-5.80e-2,
-1.482000e-3,-5.60e-2,
-1.480000e-3,-5.60e-2,
-1.478000e-3,-5.60e-2,
-1.476000e-3,-5.60e-2,
-1.474000e-3,-5.60e-2,
-1.472000e-3,-5.60e-2,
-1.470000e-3,-5.60e-2,
-1.468000e-3,-5.60e-2,
-1.466000e-3,-5.60e-2,
-1.464000e-3,-5.60e-2,
-1.462000e-3,-5.80e-2,
-1.460000e-3,-5.80e-2,
-1.458000e-3,-5.60e-2,
-1.456000e-3,-5.60e-2,
-1.454000e-3,-5.60e-2,
-1.452000e-3,-5.60e-2,
-1.450000e-3,-5.80e-2,
-1.448000e-3,-5.80e-2,
-1.446000e-3,-5.20e-2,
-1.444000e-3,-5.20e-2,
-1.442000e-3,-5.40e-2,
-1.440000e-3,-5.40e-2,
-1.438000e-3,-5.20e-2,
-1.436000e-3,-5.20e-2,
-1.434000e-3,-5.20e-2,
-1.432000e-3,-5.20e-2,
-1.430000e-3,-5.40e-2,
-1.428000e-3,-5.40e-2,
-1.426000e-3,-5.40e-2,
-1.424000e-3,-5.40e-2,
-1.422000e-3,-5.40e-2,
-1.420000e-3,-5.40e-2,
-1.418000e-3,-5.20e-2,
-1.416000e-3,-5.20e-2,
-1.414000e-3,-5.20e-2,
-1.412000e-3,-5.20e-2,
-1.410000e-3,-5.20e-2,
-1.408000e-3,-5.20e-2,
-1.406000e-3,-5.00e-2,
-1.404000e-3,-5.00e-2,
-1.402000e-3,-5.00e-2,
-1.400000e-3,-5.00e-2,
-1.398000e-3,-5.20e-2,
-1.396000e-3,-5.20e-2,
-1.394000e-3,-4.80e-2,
-1.392000e-3,-4.80e-2,
-1.390000e-3,-5.20e-2,
-1.388000e-3,-5.20e-2,
-1.386000e-3,-5.20e-2,
-1.384000e-3,-5.20e-2,
-1.382000e-3,-5.20e-2,
-1.380000e-3,-5.20e-2,
-1.378000e-3,-5.00e-2,
-1.376000e-3,-5.00e-2,
-1.374000e-3,-5.20e-2,
-1.372000e-3,-5.20e-2,
-1.370000e-3,-5.00e-2,
-1.368000e-3,-5.00e-2,
-1.366000e-3,-5.20e-2,
-1.364000e-3,-5.20e-2,
-1.362000e-3,-5.00e-2,
-1.360000e-3,-5.00e-2,
-1.358000e-3,-5.00e-2,
-1.356000e-3,-5.00e-2,
-1.354000e-3,-5.00e-2,
-1.352000e-3,-5.00e-2,
-1.350000e-3,-5.00e-2,
-1.348000e-3,-5.00e-2,
-1.346000e-3,-5.00e-2,
-1.344000e-3,-5.00e-2,
-1.342000e-3,-5.00e-2,
-1.340000e-3,-5.00e-2,
-1.338000e-3,-4.80e-2,
-1.336000e-3,-4.80e-2,
-1.334000e-3,-5.00e-2,
-1.332000e-3,-5.00e-2,
-1.330000e-3,-5.00e-2,
-1.328000e-3,-5.00e-2,
-1.326000e-3,-4.80e-2,
-1.324000e-3,-4.80e-2,
-1.322000e-3,-5.00e-2,
-1.320000e-3,-5.00e-2,
-1.318000e-3,-4.80e-2,
-1.316000e-3,-4.80e-2,
-1.314000e-3,-4.60e-2,
-1.312000e-3,-4.60e-2,
-1.310000e-3,-4.60e-2,
-1.308000e-3,-4.60e-2,
-1.306000e-3,-4.80e-2,
-1.304000e-3,-4.80e-2,
-1.302000e-3,-4.60e-2,
-1.300000e-3,-4.60e-2,
-1.298000e-3,-4.80e-2,
-1.296000e-3,-4.80e-2,
-1.294000e-3,-4.80e-2,
-1.292000e-3,-4.80e-2,
-1.290000e-3,-4.80e-2,
-1.288000e-3,-4.80e-2,
-1.286000e-3,-5.00e-2,
-1.284000e-3,-5.00e-2,
-1.282000e-3,-4.60e-2,
-1.280000e-3,-4.60e-2,
-1.278000e-3,-4.80e-2,
-1.276000e-3,-4.80e-2,
-1.274000e-3,-4.80e-2,
-1.272000e-3,-4.80e-2,
-1.270000e-3,-4.60e-2,
-1.268000e-3,-4.60e-2,
-1.266000e-3,-4.60e-2,
-1.264000e-3,-4.60e-2,
-1.262000e-3,-4.60e-2,
-1.260000e-3,-4.60e-2,
-1.258000e-3,-4.80e-2,
-1.256000e-3,-4.80e-2,
-1.254000e-3,-4.60e-2,
-1.252000e-3,-4.60e-2,
-1.250000e-3,-4.60e-2,
-1.248000e-3,-4.60e-2,
-1.246000e-3,-4.60e-2,
-1.244000e-3,-4.60e-2,
-1.242000e-3,-4.40e-2,
-1.240000e-3,-4.40e-2,
-1.238000e-3,-4.40e-2,
-1.236000e-3,-4.40e-2,
-1.234000e-3,-4.40e-2,
-1.232000e-3,-4.40e-2,
-1.230000e-3,-4.40e-2,
-1.228000e-3,-4.40e-2,
-1.226000e-3,-4.60e-2,
-1.224000e-3,-4.60e-2,
-1.222000e-3,-4.20e-2,
-1.220000e-3,-4.20e-2,
-1.218000e-3,-4.40e-2,
-1.216000e-3,-4.40e-2,
-1.214000e-3,-4.40e-2,
-1.212000e-3,-4.40e-2,
-1.210000e-3,-4.60e-2,
-1.208000e-3,-4.60e-2,
-1.206000e-3,-4.40e-2,
-1.204000e-3,-4.40e-2,
-1.202000e-3,-4.40e-2,
-1.200000e-3,-4.40e-2,
-1.198000e-3,-4.40e-2,
-1.196000e-3,-4.40e-2,
-1.194000e-3,-4.40e-2,
-1.192000e-3,-4.40e-2,
-1.190000e-3,-4.40e-2,
-1.188000e-3,-4.40e-2,
-1.186000e-3,-4.40e-2,
-1.184000e-3,-4.40e-2,
-1.182000e-3,-4.40e-2,
-1.180000e-3,-4.40e-2,
-1.178000e-3,-4.40e-2,
-1.176000e-3,-4.40e-2,
-1.174000e-3,-4.40e-2,
-1.172000e-3,-4.40e-2,
-1.170000e-3,-4.40e-2,
-1.168000e-3,-4.40e-2,
-1.166000e-3,-4.20e-2,
-1.164000e-3,-4.20e-2,
-1.162000e-3,-4.40e-2,
-1.160000e-3,-4.40e-2,
-1.158000e-3,-4.20e-2,
-1.156000e-3,-4.20e-2,
-1.154000e-3,-4.20e-2,
-1.152000e-3,-4.20e-2,
-1.150000e-3,-4.20e-2,
-1.148000e-3,-4.20e-2,
-1.146000e-3,-4.00e-2,
-1.144000e-3,-4.00e-2,
-1.142000e-3,-4.00e-2,
-1.140000e-3,-4.00e-2,
-1.138000e-3,-4.20e-2,
-1.136000e-3,-4.20e-2,
-1.134000e-3,-4.20e-2,
-1.132000e-3,-4.20e-2,
-1.130000e-3,-4.20e-2,
-1.128000e-3,-4.20e-2,
-1.126000e-3,-4.00e-2,
-1.124000e-3,-4.00e-2,
-1.122000e-3,-4.40e-2,
-1.120000e-3,-4.40e-2,
-1.118000e-3,-3.80e-2,
-1.116000e-3,-3.80e-2,
-1.114000e-3,-4.00e-2,
-1.112000e-3,-4.00e-2,
-1.110000e-3,-4.20e-2,
-1.108000e-3,-4.20e-2,
-1.106000e-3,-4.00e-2,
-1.104000e-3,-4.00e-2,
-1.102000e-3,-4.00e-2,
-1.100000e-3,-4.00e-2,
-1.098000e-3,-4.00e-2,
-1.096000e-3,-4.00e-2,
-1.094000e-3,-4.00e-2,
-1.092000e-3,-4.00e-2,
-1.090000e-3,-3.80e-2,
-1.088000e-3,-3.80e-2,
-1.086000e-3,-4.00e-2,
-1.084000e-3,-4.00e-2,
-1.082000e-3,-4.00e-2,
-1.080000e-3,-4.00e-2,
-1.078000e-3,-4.00e-2,
-1.076000e-3,-4.00e-2,
-1.074000e-3,-4.00e-2,
-1.072000e-3,-4.00e-2,
-1.070000e-3,-3.80e-2,
-1.068000e-3,-3.80e-2,
-1.066000e-3,-4.00e-2,
-1.064000e-3,-4.00e-2,
-1.062000e-3,-4.00e-2,
-1.060000e-3,-4.00e-2,
-1.058000e-3,-4.00e-2,
-1.056000e-3,-4.00e-2,
-1.054000e-3,-3.80e-2,
-1.052000e-3,-3.80e-2,
-1.050000e-3,-4.00e-2,
-1.048000e-3,-4.00e-2,
-1.046000e-3,-4.00e-2,
-1.044000e-3,-4.00e-2,
-1.042000e-3,-4.00e-2,
-1.040000e-3,-4.00e-2,
-1.038000e-3,-3.60e-2,
-1.036000e-3,-3.60e-2,
-1.034000e-3,-3.80e-2,
-1.032000e-3,-3.80e-2,
-1.030000e-3,-3.80e-2,
-1.028000e-3,-3.80e-2,
-1.026000e-3,-3.80e-2,
-1.024000e-3,-3.80e-2,
-1.022000e-3,-3.60e-2,
-1.020000e-3,-3.60e-2,
-1.018000e-3,-3.80e-2,
-1.016000e-3,-3.80e-2,
-1.014000e-3,-3.80e-2,
-1.012000e-3,-3.80e-2,
-1.010000e-3,-3.80e-2,
-1.008000e-3,-3.80e-2,
-1.006000e-3,-3.80e-2,
-1.004000e-3,-3.80e-2,
-1.002000e-3,-3.80e-2,
-1.000000e-3,-3.80e-2,
-9.980000e-4,-3.60e-2,
-9.960000e-4,-3.60e-2,
-9.940000e-4,-3.80e-2,
-9.920000e-4,-3.80e-2,
-9.900000e-4,-3.60e-2,
-9.880000e-4,-3.60e-2,
-9.860000e-4,-3.80e-2,
-9.840000e-4,-3.80e-2,
-9.820000e-4,-3.60e-2,
-9.800000e-4,-3.60e-2,
-9.780000e-4,-3.60e-2,
-9.760000e-4,-3.60e-2,
-9.740000e-4,-3.60e-2,
-9.720000e-4,-3.60e-2,
-9.700000e-4,-3.60e-2,
-9.680000e-4,-3.60e-2,
-9.660000e-4,-3.80e-2,
-9.640000e-4,-3.80e-2,
-9.620000e-4,-3.60e-2,
-9.600000e-4,-3.60e-2,
-9.580000e-4,-3.60e-2,
-9.560000e-4,-3.60e-2,
-9.540000e-4,-3.40e-2,
-9.520000e-4,-3.40e-2,
-9.500000e-4,-3.60e-2,
-9.480000e-4,-3.60e-2,
-9.460000e-4,-3.60e-2,
-9.440000e-4,-3.60e-2,
-9.420000e-4,-3.60e-2,
-9.400000e-4,-3.60e-2,
-9.380000e-4,-3.40e-2,
-9.360000e-4,-3.40e-2,
-9.340000e-4,-3.40e-2,
-9.320000e-4,-3.40e-2,
-9.300000e-4,-3.40e-2,
-9.280000e-4,-3.40e-2,
-9.260000e-4,-3.40e-2,
-9.240000e-4,-3.40e-2,
-9.220000e-4,-3.60e-2,
-9.200000e-4,-3.60e-2,
-9.180000e-4,-3.20e-2,
-9.160000e-4,-3.20e-2,
-9.140000e-4,-3.40e-2,
-9.120000e-4,-3.40e-2,
-9.100000e-4,-3.40e-2,
-9.080000e-4,-3.40e-2,
-9.060000e-4,-3.40e-2,
-9.040000e-4,-3.40e-2,
-9.020000e-4,-3.40e-2,
-9.000000e-4,-3.40e-2,
-8.980000e-4,-3.40e-2,
-8.960000e-4,-3.40e-2,
-8.940000e-4,-3.20e-2,
-8.920000e-4,-3.20e-2,
-8.900000e-4,-3.40e-2,
-8.880000e-4,-3.40e-2,
-8.860000e-4,-3.20e-2,
-8.840000e-4,-3.20e-2,
-8.820000e-4,-3.40e-2,
-8.800000e-4,-3.40e-2,
-8.780000e-4,-3.40e-2,
-8.760000e-4,-3.40e-2,
-8.740000e-4,-3.40e-2,
-8.720000e-4,-3.40e-2,
-8.700000e-4,-3.20e-2,
-8.680000e-4,-3.20e-2,
-8.660000e-4,-3.20e-2,
-8.640000e-4,-3.20e-2,
-8.620000e-4,-3.20e-2,
-8.600000e-4,-3.20e-2,
-8.580000e-4,-3.20e-2,
-8.560000e-4,-3.20e-2,
-8.540000e-4,-3.20e-2,
-8.520000e-4,-3.20e-2,
-8.500000e-4,-3.20e-2,
-8.480000e-4,-3.20e-2,
-8.460000e-4,-3.20e-2,
-8.440000e-4,-3.20e-2,
-8.420000e-4,-3.20e-2,
-8.400000e-4,-3.20e-2,
-8.380000e-4,-3.20e-2,
-8.360000e-4,-3.20e-2,
-8.340000e-4,-3.20e-2,
-8.320000e-4,-3.20e-2,
-8.300000e-4,-3.20e-2,
-8.280000e-4,-3.20e-2,
-8.260000e-4,-3.20e-2,
-8.240000e-4,-3.20e-2,
-8.220000e-4,-3.00e-2,
-8.200000e-4,-3.00e-2,
-8.180000e-4,-3.20e-2,
-8.160000e-4,-3.20e-2,
-8.140000e-4,-3.00e-2,
-8.120000e-4,-3.00e-2,
-8.100000e-4,-3.00e-2,
-8.080000e-4,-3.00e-2,
-8.060000e-4,-3.20e-2,
-8.040000e-4,-3.20e-2,
-8.020000e-4,-3.20e-2,
-8.000000e-4,-3.20e-2,
-7.980000e-4,-2.80e-2,
-7.960000e-4,-2.80e-2,
-7.940000e-4,-3.00e-2,
-7.920000e-4,-3.00e-2,
-7.900000e-4,-2.80e-2,
-7.880000e-4,-2.80e-2,
-7.860000e-4,-3.00e-2,
-7.840000e-4,-3.00e-2,
-7.820000e-4,-2.80e-2,
-7.800000e-4,-2.80e-2,
-7.780000e-4,-3.20e-2,
-7.760000e-4,-3.20e-2,
-7.740000e-4,-3.00e-2,
-7.720000e-4,-3.00e-2,
-7.700000e-4,-3.00e-2,
-7.680000e-4,-3.00e-2,
-7.660000e-4,-2.80e-2,
-7.640000e-4,-2.80e-2,
-7.620000e-4,-2.80e-2,
-7.600000e-4,-2.80e-2,
-7.580000e-4,-3.00e-2,
-7.560000e-4,-3.00e-2,
-7.540000e-4,-2.80e-2,
-7.520000e-4,-2.80e-2,
-7.500000e-4,-2.80e-2,
-7.480000e-4,-2.80e-2,
-7.460000e-4,-2.80e-2,
-7.440000e-4,-2.80e-2,
-7.420000e-4,-2.80e-2,
-7.400000e-4,-2.80e-2,
-7.380000e-4,-2.60e-2,
-7.360000e-4,-2.60e-2,
-7.340000e-4,-2.80e-2,
-7.320000e-4,-2.80e-2,
-7.300000e-4,-2.60e-2,
-7.280000e-4,-2.60e-2,
-7.260000e-4,-2.80e-2,
-7.240000e-4,-2.80e-2,
-7.220000e-4,-2.80e-2,
-7.200000e-4,-2.80e-2,
-7.180000e-4,-2.60e-2,
-7.160000e-4,-2.60e-2,
-7.140000e-4,-2.60e-2,
-7.120000e-4,-2.60e-2,
-7.100000e-4,-2.60e-2,
-7.080000e-4,-2.60e-2,
-7.060000e-4,-2.80e-2,
-7.040000e-4,-2.80e-2,
-7.020000e-4,-2.60e-2,
-7.000000e-4,-2.60e-2,
-6.980000e-4,-2.60e-2,
-6.960000e-4,-2.60e-2,
-6.940000e-4,-2.80e-2,
-6.920000e-4,-2.80e-2,
-6.900000e-4,-2.60e-2,
-6.880000e-4,-2.60e-2,
-6.860000e-4,-2.60e-2,
-6.840000e-4,-2.60e-2,
-6.820000e-4,-2.60e-2,
-6.800000e-4,-2.60e-2,
-6.780000e-4,-2.40e-2,
-6.760000e-4,-2.40e-2,
-6.740000e-4,-2.40e-2,
-6.720000e-4,-2.40e-2,
-6.700000e-4,-2.40e-2,
-6.680000e-4,-2.40e-2,
-6.660000e-4,-2.60e-2,
-6.640000e-4,-2.60e-2,
-6.620000e-4,-2.40e-2,
-6.600000e-4,-2.40e-2,
-6.580000e-4,-2.40e-2,
-6.560000e-4,-2.40e-2,
-6.540000e-4,-2.40e-2,
-6.520000e-4,-2.40e-2,
-6.500000e-4,-2.60e-2,
-6.480000e-4,-2.60e-2,
-6.460000e-4,-2.40e-2,
-6.440000e-4,-2.40e-2,
-6.420000e-4,-2.40e-2,
-6.400000e-4,-2.40e-2,
-6.380000e-4,-2.40e-2,
-6.360000e-4,-2.40e-2,
-6.340000e-4,-2.20e-2,
-6.320000e-4,-2.20e-2,
-6.300000e-4,-2.60e-2,
-6.280000e-4,-2.60e-2,
-6.260000e-4,-2.40e-2,
-6.240000e-4,-2.40e-2,
-6.220000e-4,-2.00e-2,
-6.200000e-4,-2.00e-2,
-6.180000e-4,-2.20e-2,
-6.160000e-4,-2.20e-2,
-6.140000e-4,-2.20e-2,
-6.120000e-4,-2.20e-2,
-6.100000e-4,-2.40e-2,
-6.080000e-4,-2.40e-2,
-6.060000e-4,-2.20e-2,
-6.040000e-4,-2.20e-2,
-6.020000e-4,-2.20e-2,
-6.000000e-4,-2.20e-2,
-5.980000e-4,-2.00e-2,
-5.960000e-4,-2.00e-2,
-5.940000e-4,-2.40e-2,
-5.920000e-4,-2.40e-2,
-5.900000e-4,-2.20e-2,
-5.880000e-4,-2.20e-2,
-5.860000e-4,-2.20e-2,
-5.840000e-4,-2.20e-2,
-5.820000e-4,-2.20e-2,
-5.800000e-4,-2.20e-2,
-5.780000e-4,-2.20e-2,
-5.760000e-4,-2.20e-2,
-5.740000e-4,-2.20e-2,
-5.720000e-4,-2.20e-2,
-5.700000e-4,-2.00e-2,
-5.680000e-4,-2.00e-2,
-5.660000e-4,-2.00e-2,
-5.640000e-4,-2.00e-2,
-5.620000e-4,-2.20e-2,
-5.600000e-4,-2.20e-2,
-5.580000e-4,-2.00e-2,
-5.560000e-4,-2.00e-2,
-5.540000e-4,-2.20e-2,
-5.520000e-4,-2.20e-2,
-5.500000e-4,-2.40e-2,
-5.480000e-4,-2.40e-2,
-5.460000e-4,-2.20e-2,
-5.440000e-4,-2.20e-2,
-5.420000e-4,-2.00e-2,
-5.400000e-4,-2.00e-2,
-5.380000e-4,-2.20e-2,
-5.360000e-4,-2.20e-2,
-5.340000e-4,-2.00e-2,
-5.320000e-4,-2.00e-2,
-5.300000e-4,-2.20e-2,
-5.280000e-4,-2.20e-2,
-5.260000e-4,-2.00e-2,
-5.240000e-4,-2.00e-2,
-5.220000e-4,-2.00e-2,
-5.200000e-4,-2.00e-2,
-5.180000e-4,-2.00e-2,
-5.160000e-4,-2.00e-2,
-5.140000e-4,-2.00e-2,
-5.120000e-4,-2.00e-2,
-5.100000e-4,-1.80e-2,
-5.080000e-4,-1.80e-2,
-5.060000e-4,-1.60e-2,
-5.040000e-4,-1.60e-2,
-5.020000e-4,-1.80e-2,
-5.000000e-4,-1.80e-2,
-4.980000e-4,-1.60e-2,
-4.960000e-4,-1.60e-2,
-4.940000e-4,-1.80e-2,
-4.920000e-4,-1.80e-2,
-4.900000e-4,-1.80e-2,
-4.880000e-4,-1.80e-2,
-4.860000e-4,-2.00e-2,
-4.840000e-4,-2.00e-2,
-4.820000e-4,-1.80e-2,
-4.800000e-4,-1.80e-2,
-4.780000e-4,-1.80e-2,
-4.760000e-4,-1.80e-2,
-4.740000e-4,-2.00e-2,
-4.720000e-4,-2.00e-2,
-4.700000e-4,-1.80e-2,
-4.680000e-4,-1.80e-2,
-4.660000e-4,-1.80e-2,
-4.640000e-4,-1.80e-2,
-4.620000e-4,-1.60e-2,
-4.600000e-4,-1.60e-2,
-4.580000e-4,-1.60e-2,
-4.560000e-4,-1.60e-2,
-4.540000e-4,-2.00e-2,
-4.520000e-4,-2.00e-2,
-4.500000e-4,-1.80e-2,
-4.480000e-4,-1.80e-2,
-4.460000e-4,-1.60e-2,
-4.440000e-4,-1.60e-2,
-4.420000e-4,-1.60e-2,
-4.400000e-4,-1.60e-2,
-4.380000e-4,-1.60e-2,
-4.360000e-4,-1.60e-2,
-4.340000e-4,-1.60e-2,
-4.320000e-4,-1.60e-2,
-4.300000e-4,-1.80e-2,
-4.280000e-4,-1.80e-2,
-4.260000e-4,-1.80e-2,
-4.240000e-4,-1.80e-2,
-4.220000e-4,-1.60e-2,
-4.200000e-4,-1.60e-2,
-4.180000e-4,-1.40e-2,
-4.160000e-4,-1.40e-2,
-4.140000e-4,-1.60e-2,
-4.120000e-4,-1.60e-2,
-4.100000e-4,-1.60e-2,
-4.080000e-4,-1.60e-2,
-4.060000e-4,-1.60e-2,
-4.040000e-4,-1.60e-2,
-4.020000e-4,-1.40e-2,
-4.000000e-4,-1.40e-2,
-3.980000e-4,-1.60e-2,
-3.960000e-4,-1.60e-2,
-3.940000e-4,-1.40e-2,
-3.920000e-4,-1.40e-2,
-3.900000e-4,-1.40e-2,
-3.880000e-4,-1.40e-2,
-3.860000e-4,-1.60e-2,
-3.840000e-4,-1.60e-2,
-3.820000e-4,-1.40e-2,
-3.800000e-4,-1.40e-2,
-3.780000e-4,-1.60e-2,
-3.760000e-4,-1.60e-2,
-3.740000e-4,-1.60e-2,
-3.720000e-4,-1.60e-2,
-3.700000e-4,-1.40e-2,
-3.680000e-4,-1.40e-2,
-3.660000e-4,-1.40e-2,
-3.640000e-4,-1.40e-2,
-3.620000e-4,-1.40e-2,
-3.600000e-4,-1.40e-2,
-3.580000e-4,-1.40e-2,
-3.560000e-4,-1.40e-2,
-3.540000e-4,-1.40e-2,
-3.520000e-4,-1.40e-2,
-3.500000e-4,-1.20e-2,
-3.480000e-4,-1.20e-2,
-3.460000e-4,-1.40e-2,
-3.440000e-4,-1.40e-2,
-3.420000e-4,-1.20e-2,
-3.400000e-4,-1.20e-2,
-3.380000e-4,-1.40e-2,
-3.360000e-4,-1.40e-2,
-3.340000e-4,-1.40e-2,
-3.320000e-4,-1.40e-2,
-3.300000e-4,-1.20e-2,
-3.280000e-4,-1.20e-2,
-3.260000e-4,-1.20e-2,
-3.240000e-4,-1.20e-2,
-3.220000e-4,-1.20e-2,
-3.200000e-4,-1.20e-2,
-3.180000e-4,-1.20e-2,
-3.160000e-4,-1.20e-2,
-3.140000e-4,-1.20e-2,
-3.120000e-4,-1.20e-2,
-3.100000e-4,-1.20e-2,
-3.080000e-4,-1.20e-2,
-3.060000e-4,-1.00e-2,
-3.040000e-4,-1.00e-2,
-3.020000e-4,-1.20e-2,
-3.000000e-4,-1.20e-2,
-2.980000e-4,-1.20e-2,
-2.960000e-4,-1.20e-2,
-2.940000e-4,-1.40e-2,
-2.920000e-4,-1.40e-2,
-2.900000e-4,-1.20e-2,
-2.880000e-4,-1.20e-2,
-2.860000e-4,-1.00e-2,
-2.840000e-4,-1.00e-2,
-2.820000e-4,-1.00e-2,
-2.800000e-4,-1.00e-2,
-2.780000e-4,-1.20e-2,
-2.760000e-4,-1.20e-2,
-2.740000e-4,-1.20e-2,
-2.720000e-4,-1.20e-2,
-2.700000e-4,-1.00e-2,
-2.680000e-4,-1.00e-2,
-2.660000e-4,-1.00e-2,
-2.640000e-4,-1.00e-2,
-2.620000e-4,-1.00e-2,
-2.600000e-4,-1.00e-2,
-2.580000e-4,-1.00e-2,
-2.560000e-4,-1.00e-2,
-2.540000e-4,-1.00e-2,
-2.520000e-4,-1.00e-2,
-2.500000e-4,-1.00e-2,
-2.480000e-4,-1.00e-2,
-2.460000e-4,-1.00e-2,
-2.440000e-4,-1.00e-2,
-2.420000e-4,-1.00e-2,
-2.400000e-4,-1.00e-2,
-2.380000e-4,-1.00e-2,
-2.360000e-4,-1.00e-2,
-2.340000e-4,-1.00e-2,
-2.320000e-4,-1.00e-2,
-2.300000e-4,-1.00e-2,
-2.280000e-4,-1.00e-2,
-2.260000e-4,-1.00e-2,
-2.240000e-4,-1.00e-2,
-2.220000e-4,-1.00e-2,
-2.200000e-4,-1.00e-2,
-2.180000e-4,-8.00e-3,
-2.160000e-4,-8.00e-3,
-2.140000e-4,-1.00e-2,
-2.120000e-4,-1.00e-2,
-2.100000e-4,-1.00e-2,
-2.080000e-4,-1.00e-2,
-2.060000e-4,-8.00e-3,
-2.040000e-4,-8.00e-3,
-2.020000e-4,-8.00e-3,
-2.000000e-4,-8.00e-3,
-1.980000e-4,-8.00e-3,
-1.960000e-4,-8.00e-3,
-1.940000e-4,-8.00e-3,
-1.920000e-4,-8.00e-3,
-1.900000e-4,-6.00e-3,
-1.880000e-4,-6.00e-3,
-1.860000e-4,-8.00e-3,
-1.840000e-4,-8.00e-3,
-1.820000e-4,-6.00e-3,
-1.800000e-4,-6.00e-3,
-1.780000e-4,-8.00e-3,
-1.760000e-4,-8.00e-3,
-1.740000e-4,-8.00e-3,
-1.720000e-4,-8.00e-3,
-1.700000e-4,-8.00e-3,
-1.680000e-4,-8.00e-3,
-1.660000e-4,-6.00e-3,
-1.640000e-4,-6.00e-3,
-1.620000e-4,-6.00e-3,
-1.600000e-4,-6.00e-3,
-1.580000e-4,-6.00e-3,
-1.560000e-4,-6.00e-3,
-1.540000e-4,-8.00e-3,
-1.520000e-4,-8.00e-3,
-1.500000e-4,-8.00e-3,
-1.480000e-4,-8.00e-3,
-1.460000e-4,-8.00e-3,
-1.440000e-4,-8.00e-3,
-1.420000e-4,-8.00e-3,
-1.400000e-4,-8.00e-3,
-1.380000e-4,-6.00e-3,
-1.360000e-4,-6.00e-3,
-1.340000e-4,-6.00e-3,
-1.320000e-4,-6.00e-3,
-1.300000e-4,-6.00e-3,
-1.280000e-4,-6.00e-3,
-1.260000e-4,-4.00e-3,
-1.240000e-4,-4.00e-3,
-1.220000e-4,-6.00e-3,
-1.200000e-4,-6.00e-3,
-1.180000e-4,-6.00e-3,
-1.160000e-4,-6.00e-3,
-1.140000e-4,-6.00e-3,
-1.120000e-4,-6.00e-3,
-1.100000e-4,-4.00e-3,
-1.080000e-4,-4.00e-3,
-1.060000e-4,-4.00e-3,
-1.040000e-4,-4.00e-3,
-1.020000e-4,-4.00e-3,
-1.000000e-4,-4.00e-3,
-9.800000e-5,-6.00e-3,
-9.600000e-5,-6.00e-3,
-9.400000e-5,-6.00e-3,
-9.200000e-5,-6.00e-3,
-9.000000e-5,-2.00e-3,
-8.800000e-5,-2.00e-3,
-8.600000e-5,-6.00e-3,
-8.400000e-5,-6.00e-3,
-8.200000e-5,-4.00e-3,
-8.000000e-5,-4.00e-3,
-7.800000e-5,-2.00e-3,
-7.600000e-5,-2.00e-3,
-7.400000e-5,-2.00e-3,
-7.200000e-5,-2.00e-3,
-7.000000e-5,-4.00e-3,
-6.800000e-5,-4.00e-3,
-6.600000e-5,-2.00e-3,
-6.400000e-5,-2.00e-3,
-6.200000e-5,-4.00e-3,
-6.000000e-5,-4.00e-3,
-5.800000e-5,-4.00e-3,
-5.600000e-5,-4.00e-3,
-5.400000e-5,-6.00e-3,
-5.200000e-5,-6.00e-3,
-5.000000e-5,-2.00e-3,
-4.800000e-5,-2.00e-3,
-4.600000e-5,-4.00e-3,
-4.400000e-5,-4.00e-3,
-4.200000e-5,-2.00e-3,
-4.000000e-5,-2.00e-3,
-3.800000e-5,-6.00e-3,
-3.600000e-5,-6.00e-3,
-3.400000e-5,-4.00e-3,
-3.200000e-5,-4.00e-3,
-3.000000e-5,-2.00e-3,
-2.800000e-5,-2.00e-3,
-2.600000e-5,-4.00e-3,
-2.400000e-5,-4.00e-3,
-2.200000e-5,-4.00e-3,
-2.000000e-5,-4.00e-3,
-1.800000e-5,-2.00e-3,
-1.600000e-5,-2.00e-3,
-1.400000e-5,-2.00e-3,
-1.200000e-5,-2.00e-3,
-1.000000e-5,-2.00e-3,
-8.000000e-6,-2.00e-3,
-6.000000e-6,-2.00e-3,
-4.000000e-6,-2.00e-3,
-2.000000e-6,-4.00e-3,
-1.256243e-16,-4.00e-3,
2.000000e-6,0.00e+0,
4.000000e-6,0.00e+0,
6.000000e-6,0.00e+0,
8.000000e-6,0.00e+0,
1.000000e-5,-2.00e-3,
1.200000e-5,-2.00e-3,
1.400000e-5,0.00e+0,
1.600000e-5,0.00e+0,
1.800000e-5,-2.00e-3,
2.000000e-5,-2.00e-3,
2.200000e-5,0.00e+0,
2.400000e-5,0.00e+0,
2.600000e-5,0.00e+0,
2.800000e-5,0.00e+0,
3.000000e-5,2.00e-3,
3.200000e-5,2.00e-3,
3.400000e-5,0.00e+0,
3.600000e-5,0.00e+0,
3.800000e-5,-2.00e-3,
4.000000e-5,-2.00e-3,
4.200000e-5,0.00e+0,
4.400000e-5,0.00e+0,
4.600000e-5,-2.00e-3,
4.800000e-5,-2.00e-3,
5.000000e-5,0.00e+0,
5.200000e-5,0.00e+0,
5.400000e-5,0.00e+0,
5.600000e-5,0.00e+0,
5.800000e-5,0.00e+0,
6.000000e-5,0.00e+0,
6.200000e-5,0.00e+0,
6.400000e-5,0.00e+0,
6.600000e-5,0.00e+0,
6.800000e-5,0.00e+0,
7.000000e-5,2.00e-3,
7.200000e-5,2.00e-3,
7.400000e-5,2.00e-3,
7.600000e-5,2.00e-3,
7.800000e-5,0.00e+0,
8.000000e-5,0.00e+0,
8.200000e-5,2.00e-3,
8.400000e-5,2.00e-3,
8.600000e-5,0.00e+0,
8.800000e-5,0.00e+0,
9.000000e-5,2.00e-3,
9.200000e-5,2.00e-3,
9.400000e-5,2.00e-3,
9.600000e-5,2.00e-3,
9.800000e-5,4.00e-3,
1.000000e-4,4.00e-3,
1.020000e-4,2.00e-3,
1.040000e-4,2.00e-3,
1.060000e-4,2.00e-3,
1.080000e-4,2.00e-3,
1.100000e-4,2.00e-3,
1.120000e-4,2.00e-3,
1.140000e-4,4.00e-3,
1.160000e-4,4.00e-3,
1.180000e-4,2.00e-3,
1.200000e-4,2.00e-3,
1.220000e-4,2.00e-3,
1.240000e-4,2.00e-3,
1.260000e-4,2.00e-3,
1.280000e-4,2.00e-3,
1.300000e-4,2.00e-3,
1.320000e-4,2.00e-3,
1.340000e-4,4.00e-3,
1.360000e-4,4.00e-3,
1.380000e-4,2.00e-3,
1.400000e-4,2.00e-3,
1.420000e-4,2.00e-3,
1.440000e-4,2.00e-3,
1.460000e-4,4.00e-3,
1.480000e-4,4.00e-3,
1.500000e-4,4.00e-3,
1.520000e-4,4.00e-3,
1.540000e-4,4.00e-3,
1.560000e-4,4.00e-3,
1.580000e-4,6.00e-3,
1.600000e-4,6.00e-3,
1.620000e-4,6.00e-3,
1.640000e-4,6.00e-3,
1.660000e-4,4.00e-3,
1.680000e-4,4.00e-3,
1.700000e-4,4.00e-3,
1.720000e-4,4.00e-3,
1.740000e-4,4.00e-3,
1.760000e-4,4.00e-3,
1.780000e-4,4.00e-3,
1.800000e-4,4.00e-3,
1.820000e-4,4.00e-3,
1.840000e-4,4.00e-3,
1.860000e-4,6.00e-3,
1.880000e-4,6.00e-3,
1.900000e-4,6.00e-3,
1.920000e-4,6.00e-3,
1.940000e-4,6.00e-3,
1.960000e-4,6.00e-3,
1.980000e-4,6.00e-3,
2.000000e-4,6.00e-3,
2.020000e-4,4.00e-3,
2.040000e-4,4.00e-3,
2.060000e-4,6.00e-3,
2.080000e-4,6.00e-3,
2.100000e-4,4.00e-3,
2.120000e-4,4.00e-3,
2.140000e-4,8.00e-3,
2.160000e-4,8.00e-3,
2.180000e-4,6.00e-3,
2.200000e-4,6.00e-3,
2.220000e-4,6.00e-3,
2.240000e-4,6.00e-3,
2.260000e-4,1.00e-2,
2.280000e-4,1.00e-2,
2.300000e-4,8.00e-3,
2.320000e-4,8.00e-3,
2.340000e-4,8.00e-3,
2.360000e-4,8.00e-3,
2.380000e-4,6.00e-3,
2.400000e-4,6.00e-3,
2.420000e-4,6.00e-3,
2.440000e-4,6.00e-3,
2.460000e-4,6.00e-3,
2.480000e-4,6.00e-3,
2.500000e-4,6.00e-3,
2.520000e-4,6.00e-3,
2.540000e-4,6.00e-3,
2.560000e-4,6.00e-3,
2.580000e-4,8.00e-3,
2.600000e-4,8.00e-3,
2.620000e-4,8.00e-3,
2.640000e-4,8.00e-3,
2.660000e-4,8.00e-3,
2.680000e-4,8.00e-3,
2.700000e-4,6.00e-3,
2.720000e-4,6.00e-3,
2.740000e-4,8.00e-3,
2.760000e-4,8.00e-3,
2.780000e-4,1.00e-2,
2.800000e-4,1.00e-2,
2.820000e-4,8.00e-3,
2.840000e-4,8.00e-3,
2.860000e-4,1.20e-2,
2.880000e-4,1.20e-2,
2.900000e-4,8.00e-3,
2.920000e-4,8.00e-3,
2.940000e-4,1.00e-2,
2.960000e-4,1.00e-2,
2.980000e-4,1.00e-2,
3.000000e-4,1.00e-2,
3.020000e-4,1.00e-2,
3.040000e-4,1.00e-2,
3.060000e-4,8.00e-3,
3.080000e-4,8.00e-3,
3.100000e-4,8.00e-3,
3.120000e-4,8.00e-3,
3.140000e-4,1.00e-2,
3.160000e-4,1.00e-2,
3.180000e-4,1.00e-2,
3.200000e-4,1.00e-2,
3.220000e-4,1.20e-2,
3.240000e-4,1.20e-2,
3.260000e-4,1.20e-2,
3.280000e-4,1.20e-2,
3.300000e-4,8.00e-3,
3.320000e-4,8.00e-3,
3.340000e-4,1.20e-2,
3.360000e-4,1.20e-2,
3.380000e-4,1.20e-2,
3.400000e-4,1.20e-2,
3.420000e-4,1.00e-2,
3.440000e-4,1.00e-2,
3.460000e-4,1.00e-2,
3.480000e-4,1.00e-2,
3.500000e-4,1.00e-2,
3.520000e-4,1.00e-2,
3.540000e-4,1.20e-2,
3.560000e-4,1.20e-2,
3.580000e-4,1.40e-2,
3.600000e-4,1.40e-2,
3.620000e-4,1.00e-2,
3.640000e-4,1.00e-2,
3.660000e-4,1.00e-2,
3.680000e-4,1.00e-2,
3.700000e-4,1.40e-2,
3.720000e-4,1.40e-2,
3.740000e-4,1.20e-2,
3.760000e-4,1.20e-2,
3.780000e-4,1.20e-2,
3.800000e-4,1.20e-2,
3.820000e-4,1.20e-2,
3.840000e-4,1.20e-2,
3.860000e-4,1.00e-2,
3.880000e-4,1.00e-2,
3.900000e-4,1.40e-2,
3.920000e-4,1.40e-2,
3.940000e-4,1.20e-2,
3.960000e-4,1.20e-2,
3.980000e-4,1.20e-2,
4.000000e-4,1.20e-2,
4.020000e-4,1.20e-2,
4.040000e-4,1.20e-2,
4.060000e-4,1.40e-2,
4.080000e-4,1.40e-2,
4.100000e-4,1.40e-2,
4.120000e-4,1.40e-2,
4.140000e-4,1.20e-2,
4.160000e-4,1.20e-2,
4.180000e-4,1.40e-2,
4.200000e-4,1.40e-2,
4.220000e-4,1.40e-2,
4.240000e-4,1.40e-2,
4.260000e-4,1.40e-2,
4.280000e-4,1.40e-2,
4.300000e-4,1.40e-2,
4.320000e-4,1.40e-2,
4.340000e-4,1.40e-2,
4.360000e-4,1.40e-2,
4.380000e-4,1.40e-2,
4.400000e-4,1.40e-2,
4.420000e-4,1.60e-2,
4.440000e-4,1.60e-2,
4.460000e-4,1.40e-2,
4.480000e-4,1.40e-2,
4.500000e-4,1.40e-2,
4.520000e-4,1.40e-2,
4.540000e-4,1.60e-2,
4.560000e-4,1.60e-2,
4.580000e-4,1.60e-2,
4.600000e-4,1.60e-2,
4.620000e-4,1.40e-2,
4.640000e-4,1.40e-2,
4.660000e-4,1.40e-2,
4.680000e-4,1.40e-2,
4.700000e-4,1.40e-2,
4.720000e-4,1.40e-2,
4.740000e-4,1.60e-2,
4.760000e-4,1.60e-2,
4.780000e-4,1.80e-2,
4.800000e-4,1.80e-2,
4.820000e-4,1.60e-2,
4.840000e-4,1.60e-2,
4.860000e-4,1.60e-2,
4.880000e-4,1.60e-2,
4.900000e-4,1.80e-2,
4.920000e-4,1.80e-2,
4.940000e-4,1.60e-2,
4.960000e-4,1.60e-2,
4.980000e-4,1.60e-2,
5.000000e-4,1.60e-2,
5.020000e-4,1.60e-2,
5.040000e-4,1.60e-2,
5.060000e-4,1.80e-2,
5.080000e-4,1.80e-2,
5.100000e-4,1.80e-2,
5.120000e-4,1.80e-2,
5.140000e-4,1.60e-2,
5.160000e-4,1.60e-2,
5.180000e-4,1.80e-2,
5.200000e-4,1.80e-2,
5.220000e-4,1.60e-2,
5.240000e-4,1.60e-2,
5.260000e-4,1.80e-2,
5.280000e-4,1.80e-2,
5.300000e-4,1.80e-2,
5.320000e-4,1.80e-2,
5.340000e-4,1.80e-2,
5.360000e-4,1.80e-2,
5.380000e-4,1.80e-2,
5.400000e-4,1.80e-2,
5.420000e-4,1.60e-2,
5.440000e-4,1.60e-2,
5.460000e-4,1.80e-2,
5.480000e-4,1.80e-2,
5.500000e-4,1.80e-2,
5.520000e-4,1.80e-2,
5.540000e-4,1.60e-2,
5.560000e-4,1.60e-2,
5.580000e-4,1.80e-2,
5.600000e-4,1.80e-2,
5.620000e-4,1.60e-2,
5.640000e-4,1.60e-2,
5.660000e-4,2.00e-2,
5.680000e-4,2.00e-2,
5.700000e-4,1.80e-2,
5.720000e-4,1.80e-2,
5.740000e-4,2.20e-2,
5.760000e-4,2.20e-2,
5.780000e-4,2.00e-2,
5.800000e-4,2.00e-2,
5.820000e-4,2.00e-2,
5.840000e-4,2.00e-2,
5.860000e-4,1.80e-2,
5.880000e-4,1.80e-2,
5.900000e-4,2.00e-2,
5.920000e-4,2.00e-2,
5.940000e-4,2.20e-2,
5.960000e-4,2.20e-2,
5.980000e-4,2.00e-2,
6.000000e-4,2.00e-2,
6.020000e-4,2.00e-2,
6.040000e-4,2.00e-2,
6.060000e-4,2.00e-2,
6.080000e-4,2.00e-2,
6.100000e-4,2.00e-2,
6.120000e-4,2.00e-2,
6.140000e-4,2.00e-2,
6.160000e-4,2.00e-2,
6.180000e-4,2.00e-2,
6.200000e-4,2.00e-2,
6.220000e-4,2.00e-2,
6.240000e-4,2.00e-2,
6.260000e-4,2.20e-2,
6.280000e-4,2.20e-2,
6.300000e-4,2.20e-2,
6.320000e-4,2.20e-2,
6.340000e-4,2.20e-2,
6.360000e-4,2.20e-2,
6.380000e-4,2.20e-2,
6.400000e-4,2.20e-2,
6.420000e-4,2.00e-2,
6.440000e-4,2.00e-2,
6.460000e-4,2.60e-2,
6.480000e-4,2.60e-2,
6.500000e-4,2.20e-2,
6.520000e-4,2.20e-2,
6.540000e-4,2.40e-2,
6.560000e-4,2.40e-2,
6.580000e-4,2.20e-2,
6.600000e-4,2.20e-2,
6.620000e-4,2.20e-2,
6.640000e-4,2.20e-2,
6.660000e-4,2.20e-2,
6.680000e-4,2.20e-2,
6.700000e-4,2.40e-2,
6.720000e-4,2.40e-2,
6.740000e-4,2.20e-2,
6.760000e-4,2.20e-2,
6.780000e-4,2.40e-2,
6.800000e-4,2.40e-2,
6.820000e-4,2.40e-2,
6.840000e-4,2.40e-2,
6.860000e-4,2.40e-2,
6.880000e-4,2.40e-2,
6.900000e-4,2.40e-2,
6.920000e-4,2.40e-2,
6.940000e-4,2.20e-2,
6.960000e-4,2.20e-2,
6.980000e-4,2.60e-2,
7.000000e-4,2.60e-2,
7.020000e-4,2.40e-2,
7.040000e-4,2.40e-2,
7.060000e-4,2.80e-2,
7.080000e-4,2.80e-2,
7.100000e-4,2.40e-2,
7.120000e-4,2.40e-2,
7.140000e-4,2.40e-2,
7.160000e-4,2.40e-2,
7.180000e-4,2.80e-2,
7.200000e-4,2.80e-2,
7.220000e-4,2.60e-2,
7.240000e-4,2.60e-2,
7.260000e-4,2.80e-2,
7.280000e-4,2.80e-2,
7.300000e-4,2.60e-2,
7.320000e-4,2.60e-2,
7.340000e-4,2.40e-2,
7.360000e-4,2.40e-2,
7.380000e-4,2.60e-2,
7.400000e-4,2.60e-2,
7.420000e-4,2.40e-2,
7.440000e-4,2.40e-2,
7.460000e-4,2.80e-2,
7.480000e-4,2.80e-2,
7.500000e-4,2.60e-2,
7.520000e-4,2.60e-2,
7.540000e-4,2.80e-2,
7.560000e-4,2.80e-2,
7.580000e-4,2.60e-2,
7.600000e-4,2.60e-2,
7.620000e-4,2.80e-2,
7.640000e-4,2.80e-2,
7.660000e-4,2.60e-2,
7.680000e-4,2.60e-2,
7.700000e-4,2.80e-2,
7.720000e-4,2.80e-2,
7.740000e-4,2.80e-2,
7.760000e-4,2.80e-2,
7.780000e-4,2.80e-2,
7.800000e-4,2.80e-2,
7.820000e-4,2.80e-2,
7.840000e-4,2.80e-2,
7.860000e-4,2.80e-2,
7.880000e-4,2.80e-2,
7.900000e-4,2.80e-2,
7.920000e-4,2.80e-2,
7.940000e-4,3.00e-2,
7.960000e-4,3.00e-2,
7.980000e-4,2.60e-2,
8.000000e-4,2.60e-2,
8.020000e-4,3.00e-2,
8.040000e-4,3.00e-2,
8.060000e-4,2.80e-2,
8.080000e-4,2.80e-2,
8.100000e-4,3.00e-2,
8.120000e-4,3.00e-2,
8.140000e-4,3.00e-2,
8.160000e-4,3.00e-2,
8.180000e-4,2.80e-2,
8.200000e-4,2.80e-2,
8.220000e-4,2.80e-2,
8.240000e-4,2.80e-2,
8.260000e-4,2.80e-2,
8.280000e-4,2.80e-2,
8.300000e-4,3.20e-2,
8.320000e-4,3.20e-2,
8.340000e-4,2.80e-2,
8.360000e-4,2.80e-2,
8.380000e-4,3.00e-2,
8.400000e-4,3.00e-2,
8.420000e-4,3.00e-2,
8.440000e-4,3.00e-2,
8.460000e-4,3.00e-2,
8.480000e-4,3.00e-2,
8.500000e-4,2.80e-2,
8.520000e-4,2.80e-2,
8.540000e-4,3.00e-2,
8.560000e-4,3.00e-2,
8.580000e-4,3.00e-2,
8.600000e-4,3.00e-2,
8.620000e-4,2.80e-2,
8.640000e-4,2.80e-2,
8.660000e-4,3.00e-2,
8.680000e-4,3.00e-2,
8.700000e-4,3.00e-2,
8.720000e-4,3.00e-2,
8.740000e-4,3.00e-2,
8.760000e-4,3.00e-2,
8.780000e-4,3.00e-2,
8.800000e-4,3.00e-2,
8.820000e-4,3.00e-2,
8.840000e-4,3.00e-2,
8.860000e-4,3.00e-2,
8.880000e-4,3.00e-2,
8.900000e-4,3.00e-2,
8.920000e-4,3.00e-2,
8.940000e-4,3.20e-2,
8.960000e-4,3.20e-2,
8.980000e-4,3.20e-2,
9.000000e-4,3.20e-2,
9.020000e-4,3.00e-2,
9.040000e-4,3.00e-2,
9.060000e-4,3.20e-2,
9.080000e-4,3.20e-2,
9.100000e-4,3.00e-2,
9.120000e-4,3.00e-2,
9.140000e-4,3.00e-2,
9.160000e-4,3.00e-2,
9.180000e-4,3.40e-2,
9.200000e-4,3.40e-2,
9.220000e-4,3.20e-2,
9.240000e-4,3.20e-2,
9.260000e-4,3.40e-2,
9.280000e-4,3.40e-2,
9.300000e-4,3.40e-2,
9.320000e-4,3.40e-2,
9.340000e-4,3.40e-2,
9.360000e-4,3.40e-2,
9.380000e-4,3.20e-2,
9.400000e-4,3.20e-2,
9.420000e-4,3.40e-2,
9.440000e-4,3.40e-2,
9.460000e-4,3.40e-2,
9.480000e-4,3.40e-2,
9.500000e-4,3.40e-2,
9.520000e-4,3.40e-2,
9.540000e-4,3.40e-2,
9.560000e-4,3.40e-2,
9.580000e-4,3.20e-2,
9.600000e-4,3.20e-2,
9.620000e-4,3.40e-2,
9.640000e-4,3.40e-2,
9.660000e-4,3.20e-2,
9.680000e-4,3.20e-2,
9.700000e-4,3.40e-2,
9.720000e-4,3.40e-2,
9.740000e-4,3.60e-2,
9.760000e-4,3.60e-2,
9.780000e-4,3.40e-2,
9.800000e-4,3.40e-2,
9.820000e-4,3.40e-2,
9.840000e-4,3.40e-2,
9.860000e-4,3.40e-2,
9.880000e-4,3.40e-2,
9.900000e-4,3.60e-2,
9.920000e-4,3.60e-2,
9.940000e-4,3.40e-2,
9.960000e-4,3.40e-2,
9.980000e-4,3.40e-2,
1.000000e-3,3.40e-2,
1.002000e-3,3.40e-2,
1.004000e-3,3.40e-2,
1.006000e-3,3.60e-2,
1.008000e-3,3.60e-2,
1.010000e-3,3.60e-2,
1.012000e-3,3.60e-2,
1.014000e-3,3.60e-2,
1.016000e-3,3.60e-2,
1.018000e-3,3.60e-2,
1.020000e-3,3.60e-2,
1.022000e-3,3.80e-2,
1.024000e-3,3.80e-2,
1.026000e-3,3.60e-2,
1.028000e-3,3.60e-2,
1.030000e-3,3.60e-2,
1.032000e-3,3.60e-2,
1.034000e-3,3.80e-2,
1.036000e-3,3.80e-2,
1.038000e-3,3.60e-2,
1.040000e-3,3.60e-2,
1.042000e-3,3.60e-2,
1.044000e-3,3.60e-2,
1.046000e-3,3.60e-2,
1.048000e-3,3.60e-2,
1.050000e-3,3.80e-2,
1.052000e-3,3.80e-2,
1.054000e-3,3.80e-2,
1.056000e-3,3.80e-2,
1.058000e-3,3.60e-2,
1.060000e-3,3.60e-2,
1.062000e-3,3.80e-2,
1.064000e-3,3.80e-2,
1.066000e-3,3.80e-2,
1.068000e-3,3.80e-2,
1.070000e-3,3.60e-2,
1.072000e-3,3.60e-2,
1.074000e-3,3.80e-2,
1.076000e-3,3.80e-2,
1.078000e-3,3.60e-2,
1.080000e-3,3.60e-2,
1.082000e-3,3.80e-2,
1.084000e-3,3.80e-2,
1.086000e-3,4.00e-2,
1.088000e-3,4.00e-2,
1.090000e-3,4.00e-2,
1.092000e-3,4.00e-2,
1.094000e-3,3.80e-2,
1.096000e-3,3.80e-2,
1.098000e-3,4.00e-2,
1.100000e-3,4.00e-2,
1.102000e-3,4.00e-2,
1.104000e-3,4.00e-2,
1.106000e-3,3.80e-2,
1.108000e-3,3.80e-2,
1.110000e-3,4.00e-2,
1.112000e-3,4.00e-2,
1.114000e-3,3.80e-2,
1.116000e-3,3.80e-2,
1.118000e-3,4.00e-2,
1.120000e-3,4.00e-2,
1.122000e-3,4.00e-2,
1.124000e-3,4.00e-2,
1.126000e-3,4.20e-2,
1.128000e-3,4.20e-2,
1.130000e-3,4.20e-2,
1.132000e-3,4.20e-2,
1.134000e-3,3.80e-2,
1.136000e-3,3.80e-2,
1.138000e-3,4.20e-2,
1.140000e-3,4.20e-2,
1.142000e-3,3.80e-2,
1.144000e-3,3.80e-2,
1.146000e-3,3.80e-2,
1.148000e-3,3.80e-2,
1.150000e-3,4.20e-2,
1.152000e-3,4.20e-2,
1.154000e-3,4.20e-2,
1.156000e-3,4.20e-2,
1.158000e-3,4.20e-2,
1.160000e-3,4.20e-2,
1.162000e-3,4.20e-2,
1.164000e-3,4.20e-2,
1.166000e-3,4.20e-2,
1.168000e-3,4.20e-2,
1.170000e-3,4.40e-2,
1.172000e-3,4.40e-2,
1.174000e-3,4.00e-2,
1.176000e-3,4.00e-2,
1.178000e-3,4.00e-2,
1.180000e-3,4.00e-2,
1.182000e-3,4.00e-2,
1.184000e-3,4.00e-2,
1.186000e-3,4.20e-2,
1.188000e-3,4.20e-2,
1.190000e-3,4.20e-2,
1.192000e-3,4.20e-2,
1.194000e-3,4.00e-2,
1.196000e-3,4.00e-2,
1.198000e-3,4.20e-2,
1.200000e-3,4.20e-2,
1.202000e-3,4.20e-2,
1.204000e-3,4.20e-2,
1.206000e-3,4.40e-2,
1.208000e-3,4.40e-2,
1.210000e-3,4.40e-2,
1.212000e-3,4.40e-2,
1.214000e-3,4.40e-2,
1.216000e-3,4.40e-2,
1.218000e-3,4.20e-2,
1.220000e-3,4.20e-2,
1.222000e-3,4.20e-2,
1.224000e-3,4.20e-2,
1.226000e-3,4.40e-2,
1.228000e-3,4.40e-2,
1.230000e-3,4.40e-2,
1.232000e-3,4.40e-2,
1.234000e-3,4.40e-2,
1.236000e-3,4.40e-2,
1.238000e-3,4.60e-2,
1.240000e-3,4.60e-2,
1.242000e-3,4.40e-2,
1.244000e-3,4.40e-2,
1.246000e-3,4.40e-2,
1.248000e-3,4.40e-2,
1.250000e-3,4.40e-2,
1.252000e-3,4.40e-2,
1.254000e-3,4.40e-2,
1.256000e-3,4.40e-2,
1.258000e-3,4.40e-2,
1.260000e-3,4.40e-2,
1.262000e-3,4.40e-2,
1.264000e-3,4.40e-2,
1.266000e-3,4.60e-2,
1.268000e-3,4.60e-2,
1.270000e-3,4.40e-2,
1.272000e-3,4.40e-2,
1.274000e-3,4.80e-2,
1.276000e-3,4.80e-2,
1.278000e-3,4.40e-2,
1.280000e-3,4.40e-2,
1.282000e-3,4.40e-2,
1.284000e-3,4.40e-2,
1.286000e-3,4.20e-2,
1.288000e-3,4.20e-2,
1.290000e-3,4.40e-2,
1.292000e-3,4.40e-2,
1.294000e-3,4.60e-2,
1.296000e-3,4.60e-2,
1.298000e-3,4.60e-2,
1.300000e-3,4.60e-2,
1.302000e-3,4.80e-2,
1.304000e-3,4.80e-2,
1.306000e-3,4.60e-2,
1.308000e-3,4.60e-2,
1.310000e-3,4.80e-2,
1.312000e-3,4.80e-2,
1.314000e-3,5.00e-2,
1.316000e-3,5.00e-2,
1.318000e-3,4.60e-2,
1.320000e-3,4.60e-2,
1.322000e-3,4.80e-2,
1.324000e-3,4.80e-2,
1.326000e-3,4.80e-2,
1.328000e-3,4.80e-2,
1.330000e-3,4.80e-2,
1.332000e-3,4.80e-2,
1.334000e-3,4.80e-2,
1.336000e-3,4.80e-2,
1.338000e-3,5.00e-2,
1.340000e-3,5.00e-2,
1.342000e-3,4.60e-2,
1.344000e-3,4.60e-2,
1.346000e-3,4.80e-2,
1.348000e-3,4.80e-2,
1.350000e-3,4.80e-2,
1.352000e-3,4.80e-2,
1.354000e-3,4.60e-2,
1.356000e-3,4.60e-2,
1.358000e-3,4.80e-2,
1.360000e-3,4.80e-2,
1.362000e-3,4.80e-2,
1.364000e-3,4.80e-2,
1.366000e-3,4.80e-2,
1.368000e-3,4.80e-2,
1.370000e-3,4.80e-2,
1.372000e-3,4.80e-2,
1.374000e-3,5.00e-2,
1.376000e-3,5.00e-2,
1.378000e-3,5.00e-2,
1.380000e-3,5.00e-2,
1.382000e-3,4.80e-2,
1.384000e-3,4.80e-2,
1.386000e-3,5.00e-2,
1.388000e-3,5.00e-2,
1.390000e-3,4.80e-2,
1.392000e-3,4.80e-2,
1.394000e-3,5.00e-2,
1.396000e-3,5.00e-2,
1.398000e-3,5.00e-2,
1.400000e-3,5.00e-2,
1.402000e-3,5.00e-2,
1.404000e-3,5.00e-2,
1.406000e-3,5.00e-2,
1.408000e-3,5.00e-2,
1.410000e-3,5.00e-2,
1.412000e-3,5.00e-2,
1.414000e-3,5.00e-2,
1.416000e-3,5.00e-2,
1.418000e-3,5.00e-2,
1.420000e-3,5.00e-2,
1.422000e-3,5.00e-2,
1.424000e-3,5.00e-2,
1.426000e-3,5.20e-2,
1.428000e-3,5.20e-2,
1.430000e-3,5.20e-2,
1.432000e-3,5.20e-2,
1.434000e-3,5.20e-2,
1.436000e-3,5.20e-2,
1.438000e-3,5.00e-2,
1.440000e-3,5.00e-2,
1.442000e-3,5.20e-2,
1.444000e-3,5.20e-2,
1.446000e-3,5.20e-2,
1.448000e-3,5.20e-2,
1.450000e-3,5.20e-2,
1.452000e-3,5.20e-2,
1.454000e-3,5.20e-2,
1.456000e-3,5.20e-2,
1.458000e-3,5.20e-2,
1.460000e-3,5.20e-2,
1.462000e-3,5.20e-2,
1.464000e-3,5.20e-2,
1.466000e-3,5.20e-2,
1.468000e-3,5.20e-2,
1.470000e-3,5.40e-2,
1.472000e-3,5.40e-2,
1.474000e-3,5.20e-2,
1.476000e-3,5.20e-2,
1.478000e-3,5.20e-2,
1.480000e-3,5.20e-2,
1.482000e-3,5.20e-2,
1.484000e-3,5.20e-2,
1.486000e-3,5.20e-2,
1.488000e-3,5.20e-2,
1.490000e-3,5.20e-2,
1.492000e-3,5.20e-2,
1.494000e-3,5.40e-2,
1.496000e-3,5.40e-2,
1.498000e-3,5.40e-2,
1.500000e-3,5.40e-2,
1.502000e-3,5.20e-2,
1.504000e-3,5.20e-2,
1.506000e-3,5.40e-2,
1.508000e-3,5.40e-2,
1.510000e-3,5.20e-2,
1.512000e-3,5.20e-2,
1.514000e-3,5.40e-2,
1.516000e-3,5.40e-2,
1.518000e-3,5.40e-2,
1.520000e-3,5.40e-2,
1.522000e-3,5.20e-2,
1.524000e-3,5.20e-2,
1.526000e-3,5.20e-2,
1.528000e-3,5.20e-2,
1.530000e-3,5.40e-2,
1.532000e-3,5.40e-2,
1.534000e-3,5.40e-2,
1.536000e-3,5.40e-2,
1.538000e-3,5.60e-2,
1.540000e-3,5.60e-2,
1.542000e-3,5.40e-2,
1.544000e-3,5.40e-2,
1.546000e-3,5.60e-2,
1.548000e-3,5.60e-2,
1.550000e-3,5.40e-2,
1.552000e-3,5.40e-2,
1.554000e-3,5.40e-2,
1.556000e-3,5.40e-2,
1.558000e-3,5.80e-2,
1.560000e-3,5.80e-2,
1.562000e-3,5.60e-2,
1.564000e-3,5.60e-2,
1.566000e-3,5.60e-2,
1.568000e-3,5.60e-2,
1.570000e-3,5.60e-2,
1.572000e-3,5.60e-2,
1.574000e-3,5.60e-2,
1.576000e-3,5.60e-2,
1.578000e-3,5.60e-2,
1.580000e-3,5.60e-2,
1.582000e-3,5.80e-2,
1.584000e-3,5.80e-2,
1.586000e-3,5.80e-2,
1.588000e-3,5.80e-2,
1.590000e-3,5.80e-2,
1.592000e-3,5.80e-2,
1.594000e-3,5.60e-2,
1.596000e-3,5.60e-2,
1.598000e-3,5.80e-2,
1.600000e-3,5.80e-2,
1.602000e-3,5.60e-2,
1.604000e-3,5.60e-2,
1.606000e-3,5.60e-2,
1.608000e-3,5.60e-2,
1.610000e-3,5.80e-2,
1.612000e-3,5.80e-2,
1.614000e-3,5.80e-2,
1.616000e-3,5.80e-2,
1.618000e-3,5.80e-2,
1.620000e-3,5.80e-2,
1.622000e-3,5.80e-2,
1.624000e-3,5.80e-2,
1.626000e-3,5.80e-2,
1.628000e-3,5.80e-2,
1.630000e-3,5.80e-2,
1.632000e-3,5.80e-2,
1.634000e-3,6.00e-2,
1.636000e-3,6.00e-2,
1.638000e-3,5.80e-2,
1.640000e-3,5.80e-2,
1.642000e-3,5.80e-2,
1.644000e-3,5.80e-2,
1.646000e-3,5.80e-2,
1.648000e-3,5.80e-2,
1.650000e-3,6.00e-2,
1.652000e-3,6.00e-2,
1.654000e-3,6.00e-2,
1.656000e-3,6.00e-2,
1.658000e-3,5.80e-2,
1.660000e-3,5.80e-2,
1.662000e-3,5.80e-2,
1.664000e-3,5.80e-2,
1.666000e-3,6.00e-2,
1.668000e-3,6.00e-2,
1.670000e-3,5.80e-2,
1.672000e-3,5.80e-2,
1.674000e-3,6.00e-2,
1.676000e-3,6.00e-2,
1.678000e-3,6.00e-2,
1.680000e-3,6.00e-2,
1.682000e-3,6.00e-2,
1.684000e-3,6.00e-2,
1.686000e-3,5.80e-2,
1.688000e-3,5.80e-2,
1.690000e-3,5.80e-2,
1.692000e-3,5.80e-2,
1.694000e-3,6.00e-2,
1.696000e-3,6.00e-2,
1.698000e-3,6.00e-2,
1.700000e-3,6.00e-2,
1.702000e-3,6.00e-2,
1.704000e-3,6.00e-2,
1.706000e-3,6.20e-2,
1.708000e-3,6.20e-2,
1.710000e-3,6.00e-2,
1.712000e-3,6.00e-2,
1.714000e-3,6.20e-2,
1.716000e-3,6.20e-2,
1.718000e-3,6.00e-2,
1.720000e-3,6.00e-2,
1.722000e-3,6.20e-2,
1.724000e-3,6.20e-2,
1.726000e-3,6.20e-2,
1.728000e-3,6.20e-2,
1.730000e-3,6.40e-2,
1.732000e-3,6.40e-2,
1.734000e-3,6.00e-2,
1.736000e-3,6.00e-2,
1.738000e-3,6.00e-2,
1.740000e-3,6.00e-2,
1.742000e-3,6.20e-2,
1.744000e-3,6.20e-2,
1.746000e-3,6.20e-2,
1.748000e-3,6.20e-2,
1.750000e-3,6.20e-2,
1.752000e-3,6.20e-2,
1.754000e-3,6.00e-2,
1.756000e-3,6.00e-2,
1.758000e-3,6.20e-2,
1.760000e-3,6.20e-2,
1.762000e-3,6.20e-2,
1.764000e-3,6.20e-2,
1.766000e-3,6.20e-2,
1.768000e-3,6.20e-2,
1.770000e-3,6.40e-2,
1.772000e-3,6.40e-2,
1.774000e-3,6.40e-2,
1.776000e-3,6.40e-2,
1.778000e-3,6.40e-2,
1.780000e-3,6.40e-2,
1.782000e-3,6.20e-2,
1.784000e-3,6.20e-2,
1.786000e-3,6.40e-2,
1.788000e-3,6.40e-2,
1.790000e-3,6.20e-2,
1.792000e-3,6.20e-2,
1.794000e-3,6.40e-2,
1.796000e-3,6.40e-2,
1.798000e-3,6.40e-2,
1.800000e-3,6.40e-2,
1.802000e-3,6.40e-2,
1.804000e-3,6.40e-2,
1.806000e-3,6.40e-2,
1.808000e-3,6.40e-2,
1.810000e-3,6.20e-2,
1.812000e-3,6.20e-2,
1.814000e-3,6.40e-2,
1.816000e-3,6.40e-2,
1.818000e-3,6.60e-2,
1.820000e-3,6.60e-2,
1.822000e-3,6.40e-2,
1.824000e-3,6.40e-2,
1.826000e-3,6.40e-2,
1.828000e-3,6.40e-2,
1.830000e-3,6.40e-2,
1.832000e-3,6.40e-2,
1.834000e-3,6.20e-2,
1.836000e-3,6.20e-2,
1.838000e-3,6.60e-2,
1.840000e-3,6.60e-2,
1.842000e-3,6.40e-2,
1.844000e-3,6.40e-2,
1.846000e-3,6.40e-2,
1.848000e-3,6.40e-2,
1.850000e-3,6.40e-2,
1.852000e-3,6.40e-2,
1.854000e-3,6.20e-2,
1.856000e-3,6.20e-2,
1.858000e-3,6.60e-2,
1.860000e-3,6.60e-2,
1.862000e-3,6.60e-2,
1.864000e-3,6.60e-2,
1.866000e-3,6.60e-2,
1.868000e-3,6.60e-2,
1.870000e-3,6.40e-2,
1.872000e-3,6.40e-2,
1.874000e-3,6.60e-2,
1.876000e-3,6.60e-2,
1.878000e-3,6.60e-2,
1.880000e-3,6.60e-2,
1.882000e-3,6.60e-2,
1.884000e-3,6.60e-2,
1.886000e-3,6.80e-2,
1.888000e-3,6.80e-2,
1.890000e-3,6.60e-2,
1.892000e-3,6.60e-2,
1.894000e-3,6.80e-2,
1.896000e-3,6.80e-2,
1.898000e-3,6.60e-2,
1.900000e-3,6.60e-2,
1.902000e-3,6.60e-2,
1.904000e-3,6.60e-2,
1.906000e-3,6.60e-2,
1.908000e-3,6.60e-2,
1.910000e-3,6.80e-2,
1.912000e-3,6.80e-2,
1.914000e-3,6.60e-2,
1.916000e-3,6.60e-2,
1.918000e-3,6.60e-2,
1.920000e-3,6.60e-2,
1.922000e-3,6.80e-2,
1.924000e-3,6.80e-2,
1.926000e-3,6.80e-2,
1.928000e-3,6.80e-2,
1.930000e-3,6.80e-2,
1.932000e-3,6.80e-2,
1.934000e-3,6.80e-2,
1.936000e-3,6.80e-2,
1.938000e-3,6.80e-2,
1.940000e-3,6.80e-2,
1.942000e-3,6.80e-2,
1.944000e-3,6.80e-2,
1.946000e-3,7.00e-2,
1.948000e-3,7.00e-2,
1.950000e-3,6.80e-2,
1.952000e-3,6.80e-2,
1.954000e-3,6.80e-2,
1.956000e-3,6.80e-2,
1.958000e-3,6.80e-2,
1.960000e-3,6.80e-2,
1.962000e-3,7.00e-2,
1.964000e-3,7.00e-2,
1.966000e-3,6.80e-2,
1.968000e-3,6.80e-2,
1.970000e-3,6.80e-2,
1.972000e-3,6.80e-2,
1.974000e-3,6.80e-2,
1.976000e-3,6.80e-2,
1.978000e-3,7.00e-2,
1.980000e-3,7.00e-2,
1.982000e-3,7.00e-2,
1.984000e-3,7.00e-2,
1.986000e-3,6.80e-2,
1.988000e-3,6.80e-2,
1.990000e-3,7.00e-2,
1.992000e-3,7.00e-2,
1.994000e-3,7.00e-2,
1.996000e-3,7.00e-2,
1.998000e-3,7.00e-2,
2.000000e-3,7.00e-2,
2.002000e-3,7.00e-2,
2.004000e-3,7.00e-2,
2.006000e-3,7.00e-2,
2.008000e-3,7.00e-2,
2.010000e-3,7.20e-2,
2.012000e-3,7.20e-2,
2.014000e-3,6.80e-2,
2.016000e-3,6.80e-2,
2.018000e-3,7.00e-2,
2.020000e-3,7.00e-2,
2.022000e-3,7.20e-2,
2.024000e-3,7.20e-2,
2.026000e-3,7.20e-2,
2.028000e-3,7.20e-2,
2.030000e-3,7.00e-2,
2.032000e-3,7.00e-2,
2.034000e-3,7.20e-2,
2.036000e-3,7.20e-2,
2.038000e-3,7.20e-2,
2.040000e-3,7.20e-2,
2.042000e-3,7.20e-2,
2.044000e-3,7.20e-2,
2.046000e-3,7.20e-2,
2.048000e-3,7.20e-2,
2.050000e-3,7.40e-2,
2.052000e-3,7.40e-2,
2.054000e-3,7.40e-2,
2.056000e-3,7.40e-2,
2.058000e-3,7.40e-2,
2.060000e-3,7.40e-2,
2.062000e-3,7.20e-2,
2.064000e-3,7.20e-2,
2.066000e-3,7.40e-2,
2.068000e-3,7.40e-2,
2.070000e-3,7.60e-2,
2.072000e-3,7.60e-2,
2.074000e-3,7.20e-2,
2.076000e-3,7.20e-2,
2.078000e-3,7.40e-2,
2.080000e-3,7.40e-2,
2.082000e-3,7.40e-2,
2.084000e-3,7.40e-2,
2.086000e-3,7.60e-2,
2.088000e-3,7.60e-2,
2.090000e-3,7.40e-2,
2.092000e-3,7.40e-2,
2.094000e-3,7.60e-2,
2.096000e-3,7.60e-2,
2.098000e-3,7.60e-2,
2.100000e-3,7.60e-2,
2.102000e-3,7.40e-2,
2.104000e-3,7.40e-2,
2.106000e-3,7.40e-2,
2.108000e-3,7.40e-2,
2.110000e-3,7.60e-2,
2.112000e-3,7.60e-2,
2.114000e-3,7.60e-2,
2.116000e-3,7.60e-2,
2.118000e-3,7.60e-2,
2.120000e-3,7.60e-2,
2.122000e-3,7.60e-2,
2.124000e-3,7.60e-2,
2.126000e-3,7.60e-2,
2.128000e-3,7.60e-2,
2.130000e-3,7.80e-2,
2.132000e-3,7.80e-2,
2.134000e-3,7.60e-2,
2.136000e-3,7.60e-2,
2.138000e-3,7.80e-2,
2.140000e-3,7.80e-2,
2.142000e-3,7.60e-2,
2.144000e-3,7.60e-2,
2.146000e-3,7.40e-2,
2.148000e-3,7.40e-2,
2.150000e-3,7.60e-2,
2.152000e-3,7.60e-2,
2.154000e-3,7.40e-2,
2.156000e-3,7.40e-2,
2.158000e-3,7.80e-2,
2.160000e-3,7.80e-2,
2.162000e-3,7.40e-2,
2.164000e-3,7.40e-2,
2.166000e-3,8.00e-2,
2.168000e-3,8.00e-2,
2.170000e-3,7.80e-2,
2.172000e-3,7.80e-2,
2.174000e-3,7.80e-2,
2.176000e-3,7.80e-2,
2.178000e-3,8.00e-2,
2.180000e-3,8.00e-2,
2.182000e-3,7.80e-2,
2.184000e-3,7.80e-2,
2.186000e-3,7.80e-2,
2.188000e-3,7.80e-2,
2.190000e-3,8.00e-2,
2.192000e-3,8.00e-2,
2.194000e-3,7.80e-2,
2.196000e-3,7.80e-2,
2.198000e-3,7.80e-2,
2.200000e-3,7.80e-2,
2.202000e-3,8.00e-2,
2.204000e-3,8.00e-2,
2.206000e-3,7.80e-2,
2.208000e-3,7.80e-2,
2.210000e-3,7.80e-2,
2.212000e-3,7.80e-2,
2.214000e-3,7.80e-2,
2.216000e-3,7.80e-2,
2.218000e-3,7.60e-2,
2.220000e-3,7.60e-2,
2.222000e-3,7.40e-2,
2.224000e-3,7.40e-2,
2.226000e-3,7.60e-2,
2.228000e-3,7.60e-2,
2.230000e-3,7.80e-2,
2.232000e-3,7.80e-2,
2.234000e-3,7.80e-2,
2.236000e-3,7.80e-2,
2.238000e-3,7.60e-2,
2.240000e-3,7.60e-2,
2.242000e-3,7.60e-2,
2.244000e-3,7.60e-2,
2.246000e-3,7.60e-2,
2.248000e-3,7.60e-2,
2.250000e-3,7.60e-2,
2.252000e-3,7.60e-2,
2.254000e-3,7.60e-2,
2.256000e-3,7.60e-2,
2.258000e-3,7.60e-2,
2.260000e-3,7.60e-2,
2.262000e-3,7.80e-2,
2.264000e-3,7.80e-2,
2.266000e-3,7.60e-2,
2.268000e-3,7.60e-2,
2.270000e-3,7.40e-2,
2.272000e-3,7.40e-2,
2.274000e-3,7.40e-2,
2.276000e-3,7.40e-2,
2.278000e-3,7.40e-2,
2.280000e-3,7.40e-2,
2.282000e-3,7.40e-2,
2.284000e-3,7.40e-2,
2.286000e-3,7.20e-2,
2.288000e-3,7.20e-2,
2.290000e-3,7.60e-2,
2.292000e-3,7.60e-2,
2.294000e-3,7.20e-2,
2.296000e-3,7.20e-2,
2.298000e-3,7.60e-2,
2.300000e-3,7.60e-2,
2.302000e-3,7.20e-2,
2.304000e-3,7.20e-2,
2.306000e-3,7.40e-2,
2.308000e-3,7.40e-2,
2.310000e-3,7.40e-2,
2.312000e-3,7.40e-2,
2.314000e-3,7.40e-2,
2.316000e-3,7.40e-2,
2.318000e-3,7.80e-2,
2.320000e-3,7.80e-2,
2.322000e-3,7.20e-2,
2.324000e-3,7.20e-2,
2.326000e-3,7.00e-2,
2.328000e-3,7.00e-2,
2.330000e-3,7.20e-2,
2.332000e-3,7.20e-2,
2.334000e-3,7.40e-2,
2.336000e-3,7.40e-2,
2.338000e-3,7.20e-2,
2.340000e-3,7.20e-2,
2.342000e-3,7.40e-2,
2.344000e-3,7.40e-2,
2.346000e-3,7.20e-2,
2.348000e-3,7.20e-2,
2.350000e-3,7.00e-2,
2.352000e-3,7.00e-2,
2.354000e-3,7.40e-2,
2.356000e-3,7.40e-2,
2.358000e-3,7.00e-2,
2.360000e-3,7.00e-2,
2.362000e-3,7.00e-2,
2.364000e-3,7.00e-2,
2.366000e-3,7.00e-2,
2.368000e-3,7.00e-2,
2.370000e-3,7.00e-2,
2.372000e-3,7.00e-2,
2.374000e-3,7.00e-2,
2.376000e-3,7.00e-2,
2.378000e-3,7.00e-2,
2.380000e-3,7.00e-2,
2.382000e-3,6.80e-2,
2.384000e-3,6.80e-2,
2.386000e-3,7.00e-2,
2.388000e-3,7.00e-2,
2.390000e-3,7.00e-2,
2.392000e-3,7.00e-2,
2.394000e-3,7.00e-2,
2.396000e-3,7.00e-2,
2.398000e-3,7.20e-2,
2.400000e-3,7.20e-2,
2.402000e-3,6.80e-2,
2.404000e-3,6.80e-2,
2.406000e-3,7.00e-2,
2.408000e-3,7.00e-2,
2.410000e-3,6.80e-2,
2.412000e-3,6.80e-2,
2.414000e-3,6.80e-2,
2.416000e-3,6.80e-2,
2.418000e-3,6.80e-2,
2.420000e-3,6.80e-2,
2.422000e-3,7.00e-2,
2.424000e-3,7.00e-2,
2.426000e-3,6.80e-2,
2.428000e-3,6.80e-2,
2.430000e-3,6.60e-2,
2.432000e-3,6.60e-2,
2.434000e-3,6.80e-2,
2.436000e-3,6.80e-2,
2.438000e-3,7.00e-2,
2.440000e-3,7.00e-2,
2.442000e-3,6.80e-2,
2.444000e-3,6.80e-2,
2.446000e-3,6.80e-2,
2.448000e-3,6.80e-2,
2.450000e-3,6.60e-2,
2.452000e-3,6.60e-2,
2.454000e-3,6.80e-2,
2.456000e-3,6.80e-2,
2.458000e-3,7.00e-2,
2.460000e-3,7.00e-2,
2.462000e-3,7.00e-2,
2.464000e-3,7.00e-2,
2.466000e-3,6.80e-2,
2.468000e-3,6.80e-2,
2.470000e-3,6.80e-2,
2.472000e-3,6.80e-2,
2.474000e-3,6.80e-2,
2.476000e-3,6.80e-2,
2.478000e-3,6.80e-2,
2.480000e-3,6.80e-2,
2.482000e-3,6.80e-2,
2.484000e-3,6.80e-2,
2.486000e-3,6.40e-2,
2.488000e-3,6.40e-2,
2.490000e-3,6.60e-2,
2.492000e-3,6.60e-2,
2.494000e-3,6.60e-2,
2.496000e-3,6.60e-2,
2.498000e-3,6.60e-2,
2.500000e-3,6.60e-2,
2.502000e-3,6.60e-2,
2.504000e-3,6.60e-2,
2.506000e-3,6.60e-2,
2.508000e-3,6.60e-2,
2.510000e-3,6.60e-2,
2.512000e-3,6.60e-2,
2.514000e-3,6.40e-2,
2.516000e-3,6.40e-2,
2.518000e-3,6.60e-2,
2.520000e-3,6.60e-2,
2.522000e-3,6.40e-2,
2.524000e-3,6.40e-2,
2.526000e-3,6.40e-2,
2.528000e-3,6.40e-2,
2.530000e-3,6.80e-2,
2.532000e-3,6.80e-2,
2.534000e-3,6.40e-2,
2.536000e-3,6.40e-2,
2.538000e-3,6.40e-2,
2.540000e-3,6.40e-2,
2.542000e-3,6.40e-2,
2.544000e-3,6.40e-2,
2.546000e-3,6.40e-2,
2.548000e-3,6.40e-2,
2.550000e-3,6.40e-2,
2.552000e-3,6.40e-2,
2.554000e-3,6.20e-2,
2.556000e-3,6.20e-2,
2.558000e-3,6.40e-2,
2.560000e-3,6.40e-2,
2.562000e-3,6.40e-2,
2.564000e-3,6.40e-2,
2.566000e-3,6.40e-2,
2.568000e-3,6.40e-2,
2.570000e-3,6.40e-2,
2.572000e-3,6.40e-2,
2.574000e-3,6.20e-2,
2.576000e-3,6.20e-2,
2.578000e-3,6.40e-2,
2.580000e-3,6.40e-2,
2.582000e-3,6.20e-2,
2.584000e-3,6.20e-2,
2.586000e-3,6.20e-2,
2.588000e-3,6.20e-2,
2.590000e-3,6.20e-2,
2.592000e-3,6.20e-2,
2.594000e-3,6.20e-2,
2.596000e-3,6.20e-2,
2.598000e-3,6.40e-2,
2.600000e-3,6.40e-2,
2.602000e-3,6.20e-2,
2.604000e-3,6.20e-2,
2.606000e-3,6.20e-2,
2.608000e-3,6.20e-2,
2.610000e-3,6.20e-2,
2.612000e-3,6.20e-2,
2.614000e-3,6.20e-2,
2.616000e-3,6.20e-2,
2.618000e-3,6.20e-2,
2.620000e-3,6.20e-2,
2.622000e-3,6.20e-2,
2.624000e-3,6.20e-2,
2.626000e-3,6.20e-2,
2.628000e-3,6.20e-2,
2.630000e-3,6.20e-2,
2.632000e-3,6.20e-2,
2.634000e-3,6.20e-2,
2.636000e-3,6.20e-2,
2.638000e-3,6.20e-2,
2.640000e-3,6.20e-2,
2.642000e-3,6.20e-2,
2.644000e-3,6.20e-2,
2.646000e-3,6.20e-2,
2.648000e-3,6.20e-2,
2.650000e-3,6.20e-2,
2.652000e-3,6.20e-2,
2.654000e-3,5.80e-2,
2.656000e-3,5.80e-2,
2.658000e-3,6.00e-2,
2.660000e-3,6.00e-2,
2.662000e-3,6.20e-2,
2.664000e-3,6.20e-2,
2.666000e-3,6.00e-2,
2.668000e-3,6.00e-2,
2.670000e-3,6.00e-2,
2.672000e-3,6.00e-2,
2.674000e-3,5.80e-2,
2.676000e-3,5.80e-2,
2.678000e-3,6.20e-2,
2.680000e-3,6.20e-2,
2.682000e-3,6.20e-2,
2.684000e-3,6.20e-2,
2.686000e-3,6.00e-2,
2.688000e-3,6.00e-2,
2.690000e-3,6.00e-2,
2.692000e-3,6.00e-2,
2.694000e-3,5.80e-2,
2.696000e-3,5.80e-2,
2.698000e-3,5.80e-2,
2.700000e-3,5.80e-2,
2.702000e-3,5.80e-2,
2.704000e-3,5.80e-2,
2.706000e-3,6.00e-2,
2.708000e-3,6.00e-2,
2.710000e-3,6.00e-2,
2.712000e-3,6.00e-2,
2.714000e-3,6.00e-2,
2.716000e-3,6.00e-2,
2.718000e-3,5.80e-2,
2.720000e-3,5.80e-2,
2.722000e-3,5.80e-2,
2.724000e-3,5.80e-2,
2.726000e-3,5.80e-2,
2.728000e-3,5.80e-2,
2.730000e-3,6.00e-2,
2.732000e-3,6.00e-2,
2.734000e-3,5.80e-2,
2.736000e-3,5.80e-2,
2.738000e-3,5.80e-2,
2.740000e-3,5.80e-2,
2.742000e-3,5.80e-2,
2.744000e-3,5.80e-2,
2.746000e-3,5.60e-2,
2.748000e-3,5.60e-2,
2.750000e-3,5.60e-2,
2.752000e-3,5.60e-2,
2.754000e-3,5.80e-2,
2.756000e-3,5.80e-2,
2.758000e-3,5.80e-2,
2.760000e-3,5.80e-2,
2.762000e-3,5.80e-2,
2.764000e-3,5.80e-2,
2.766000e-3,5.80e-2,
2.768000e-3,5.80e-2,
2.770000e-3,5.60e-2,
2.772000e-3,5.60e-2,
2.774000e-3,5.60e-2,
2.776000e-3,5.60e-2,
2.778000e-3,5.80e-2,
2.780000e-3,5.80e-2,
2.782000e-3,5.80e-2,
2.784000e-3,5.80e-2,
2.786000e-3,5.60e-2,
2.788000e-3,5.60e-2,
2.790000e-3,5.40e-2,
2.792000e-3,5.40e-2,
2.794000e-3,5.40e-2,
2.796000e-3,5.40e-2,
2.798000e-3,5.60e-2,
2.800000e-3,5.60e-2,
2.802000e-3,5.60e-2,
2.804000e-3,5.60e-2,
2.806000e-3,5.60e-2,
2.808000e-3,5.60e-2,
2.810000e-3,5.40e-2,
2.812000e-3,5.40e-2,
2.814000e-3,5.60e-2,
2.816000e-3,5.60e-2,
2.818000e-3,5.40e-2,
2.820000e-3,5.40e-2,
2.822000e-3,5.60e-2,
2.824000e-3,5.60e-2,
2.826000e-3,5.40e-2,
2.828000e-3,5.40e-2,
2.830000e-3,5.40e-2,
2.832000e-3,5.40e-2,
2.834000e-3,5.40e-2,
2.836000e-3,5.40e-2,
2.838000e-3,5.40e-2,
2.840000e-3,5.40e-2,
2.842000e-3,5.40e-2,
2.844000e-3,5.40e-2,
2.846000e-3,5.40e-2,
2.848000e-3,5.40e-2,
2.850000e-3,5.40e-2,
2.852000e-3,5.40e-2,
2.854000e-3,5.40e-2,
2.856000e-3,5.40e-2,
2.858000e-3,5.40e-2,
2.860000e-3,5.40e-2,
2.862000e-3,5.40e-2,
2.864000e-3,5.40e-2,
2.866000e-3,5.20e-2,
2.868000e-3,5.20e-2,
2.870000e-3,5.40e-2,
2.872000e-3,5.40e-2,
2.874000e-3,5.40e-2,
2.876000e-3,5.40e-2,
2.878000e-3,5.40e-2,
2.880000e-3,5.40e-2,
2.882000e-3,5.40e-2,
2.884000e-3,5.40e-2,
2.886000e-3,5.20e-2,
2.888000e-3,5.20e-2,
2.890000e-3,5.20e-2,
2.892000e-3,5.20e-2,
2.894000e-3,5.40e-2,
2.896000e-3,5.40e-2,
2.898000e-3,5.20e-2,
2.900000e-3,5.20e-2,
2.902000e-3,5.20e-2,
2.904000e-3,5.20e-2,
2.906000e-3,5.20e-2,
2.908000e-3,5.20e-2,
2.910000e-3,5.20e-2,
2.912000e-3,5.20e-2,
2.914000e-3,5.20e-2,
2.916000e-3,5.20e-2,
2.918000e-3,5.20e-2,
2.920000e-3,5.20e-2,
2.922000e-3,5.20e-2,
2.924000e-3,5.20e-2,
2.926000e-3,5.20e-2,
2.928000e-3,5.20e-2,
2.930000e-3,5.20e-2,
2.932000e-3,5.20e-2,
2.934000e-3,5.00e-2,
2.936000e-3,5.00e-2,
2.938000e-3,5.00e-2,
2.940000e-3,5.00e-2,
2.942000e-3,5.00e-2,
2.944000e-3,5.00e-2,
2.946000e-3,5.20e-2,
2.948000e-3,5.20e-2,
2.950000e-3,5.20e-2,
2.952000e-3,5.20e-2,
2.954000e-3,5.20e-2,
2.956000e-3,5.20e-2,
2.958000e-3,5.00e-2,
2.960000e-3,5.00e-2,
2.962000e-3,5.00e-2,
2.964000e-3,5.00e-2,
2.966000e-3,5.00e-2,
2.968000e-3,5.00e-2,
2.970000e-3,5.00e-2,
2.972000e-3,5.00e-2,
2.974000e-3,5.00e-2,
2.976000e-3,5.00e-2,
2.978000e-3,5.00e-2,
2.980000e-3,5.00e-2,
2.982000e-3,4.80e-2,
2.984000e-3,4.80e-2,
2.986000e-3,4.80e-2,
2.988000e-3,4.80e-2,
2.990000e-3,4.80e-2,
2.992000e-3,4.80e-2,
2.994000e-3,4.80e-2,
2.996000e-3,4.80e-2,
2.998000e-3,5.00e-2,
3.000000e-3,5.00e-2,
3.002000e-3,4.80e-2,
3.004000e-3,4.80e-2,
3.006000e-3,4.80e-2,
3.008000e-3,4.80e-2,
3.010000e-3,4.60e-2,
3.012000e-3,4.60e-2,
3.014000e-3,4.60e-2,
3.016000e-3,4.60e-2,
3.018000e-3,4.80e-2,
3.020000e-3,4.80e-2,
3.022000e-3,4.80e-2,
3.024000e-3,4.80e-2,
3.026000e-3,4.80e-2,
3.028000e-3,4.80e-2,
3.030000e-3,4.60e-2,
3.032000e-3,4.60e-2,
3.034000e-3,4.80e-2,
3.036000e-3,4.80e-2,
3.038000e-3,4.60e-2,
3.040000e-3,4.60e-2,
3.042000e-3,4.60e-2,
3.044000e-3,4.60e-2,
3.046000e-3,4.80e-2,
3.048000e-3,4.80e-2,
3.050000e-3,4.60e-2,
3.052000e-3,4.60e-2,
3.054000e-3,4.60e-2,
3.056000e-3,4.60e-2,
3.058000e-3,4.80e-2,
3.060000e-3,4.80e-2,
3.062000e-3,4.60e-2,
3.064000e-3,4.60e-2,
3.066000e-3,4.60e-2,
3.068000e-3,4.60e-2,
3.070000e-3,4.80e-2,
3.072000e-3,4.80e-2,
3.074000e-3,4.60e-2,
3.076000e-3,4.60e-2,
3.078000e-3,4.60e-2,
3.080000e-3,4.60e-2,
3.082000e-3,4.60e-2,
3.084000e-3,4.60e-2,
3.086000e-3,4.40e-2,
3.088000e-3,4.40e-2,
3.090000e-3,4.60e-2,
3.092000e-3,4.60e-2,
3.094000e-3,4.60e-2,
3.096000e-3,4.60e-2,
3.098000e-3,4.40e-2,
3.100000e-3,4.40e-2,
3.102000e-3,4.40e-2,
3.104000e-3,4.40e-2,
3.106000e-3,4.20e-2,
3.108000e-3,4.20e-2,
3.110000e-3,4.40e-2,
3.112000e-3,4.40e-2,
3.114000e-3,4.80e-2,
3.116000e-3,4.80e-2,
3.118000e-3,4.40e-2,
3.120000e-3,4.40e-2,
3.122000e-3,4.60e-2,
3.124000e-3,4.60e-2,
3.126000e-3,4.40e-2,
3.128000e-3,4.40e-2,
3.130000e-3,4.40e-2,
3.132000e-3,4.40e-2,
3.134000e-3,4.60e-2,
3.136000e-3,4.60e-2,
3.138000e-3,4.40e-2,
3.140000e-3,4.40e-2,
3.142000e-3,4.20e-2,
3.144000e-3,4.20e-2,
3.146000e-3,4.60e-2,
3.148000e-3,4.60e-2,
3.150000e-3,4.20e-2,
3.152000e-3,4.20e-2,
3.154000e-3,4.00e-2,
3.156000e-3,4.00e-2,
3.158000e-3,4.20e-2,
3.160000e-3,4.20e-2,
3.162000e-3,4.20e-2,
3.164000e-3,4.20e-2,
3.166000e-3,4.20e-2,
3.168000e-3,4.20e-2,
3.170000e-3,4.00e-2,
3.172000e-3,4.00e-2,
3.174000e-3,4.20e-2,
3.176000e-3,4.20e-2,
3.178000e-3,4.00e-2,
3.180000e-3,4.00e-2,
3.182000e-3,4.20e-2,
3.184000e-3,4.20e-2,
3.186000e-3,4.20e-2,
3.188000e-3,4.20e-2,
3.190000e-3,4.20e-2,
3.192000e-3,4.20e-2,
3.194000e-3,4.20e-2,
3.196000e-3,4.20e-2,
3.198000e-3,4.20e-2,
3.200000e-3,4.20e-2,
3.202000e-3,4.00e-2,
3.204000e-3,4.00e-2,
3.206000e-3,3.80e-2,
3.208000e-3,3.80e-2,
3.210000e-3,4.20e-2,
3.212000e-3,4.20e-2,
3.214000e-3,4.00e-2,
3.216000e-3,4.00e-2,
3.218000e-3,4.20e-2,
3.220000e-3,4.20e-2,
3.222000e-3,4.20e-2,
3.224000e-3,4.20e-2,
3.226000e-3,4.00e-2,
3.228000e-3,4.00e-2,
3.230000e-3,4.20e-2,
3.232000e-3,4.20e-2,
3.234000e-3,4.00e-2,
3.236000e-3,4.00e-2,
3.238000e-3,4.00e-2,
3.240000e-3,4.00e-2,
3.242000e-3,3.80e-2,
3.244000e-3,3.80e-2,
3.246000e-3,4.00e-2,
3.248000e-3,4.00e-2,
3.250000e-3,4.00e-2,
3.252000e-3,4.00e-2,
3.254000e-3,3.80e-2,
3.256000e-3,3.80e-2,
3.258000e-3,3.60e-2,
3.260000e-3,3.60e-2,
3.262000e-3,3.80e-2,
3.264000e-3,3.80e-2,
3.266000e-3,3.80e-2,
3.268000e-3,3.80e-2,
3.270000e-3,3.80e-2,
3.272000e-3,3.80e-2,
3.274000e-3,3.80e-2,
3.276000e-3,3.80e-2,
3.278000e-3,3.40e-2,
3.280000e-3,3.40e-2,
3.282000e-3,3.80e-2,
3.284000e-3,3.80e-2,
3.286000e-3,3.80e-2,
3.288000e-3,3.80e-2,
3.290000e-3,3.80e-2,
3.292000e-3,3.80e-2,
3.294000e-3,3.60e-2,
3.296000e-3,3.60e-2,
3.298000e-3,3.60e-2,
3.300000e-3,3.60e-2,
3.302000e-3,4.00e-2,
3.304000e-3,4.00e-2,
3.306000e-3,3.60e-2,
3.308000e-3,3.60e-2,
3.310000e-3,3.60e-2,
3.312000e-3,3.60e-2,
3.314000e-3,3.60e-2,
3.316000e-3,3.60e-2,
3.318000e-3,3.60e-2,
3.320000e-3,3.60e-2,
3.322000e-3,3.40e-2,
3.324000e-3,3.40e-2,
3.326000e-3,3.60e-2,
3.328000e-3,3.60e-2,
3.330000e-3,3.40e-2,
3.332000e-3,3.40e-2,
3.334000e-3,3.60e-2,
3.336000e-3,3.60e-2,
3.338000e-3,3.60e-2,
3.340000e-3,3.60e-2,
3.342000e-3,3.80e-2,
3.344000e-3,3.80e-2,
3.346000e-3,3.60e-2,
3.348000e-3,3.60e-2,
3.350000e-3,3.40e-2,
3.352000e-3,3.40e-2,
3.354000e-3,3.20e-2,
3.356000e-3,3.20e-2,
3.358000e-3,3.20e-2,
3.360000e-3,3.20e-2,
3.362000e-3,3.60e-2,
3.364000e-3,3.60e-2,
3.366000e-3,3.40e-2,
3.368000e-3,3.40e-2,
3.370000e-3,3.40e-2,
3.372000e-3,3.40e-2,
3.374000e-3,3.40e-2,
3.376000e-3,3.40e-2,
3.378000e-3,3.40e-2,
3.380000e-3,3.40e-2,
3.382000e-3,3.20e-2,
3.384000e-3,3.20e-2,
3.386000e-3,3.40e-2,
3.388000e-3,3.40e-2,
3.390000e-3,3.20e-2,
3.392000e-3,3.20e-2,
3.394000e-3,3.40e-2,
3.396000e-3,3.40e-2,
3.398000e-3,3.20e-2,
3.400000e-3,3.20e-2,
3.402000e-3,3.40e-2,
3.404000e-3,3.40e-2,
3.406000e-3,3.40e-2,
3.408000e-3,3.40e-2,
3.410000e-3,3.20e-2,
3.412000e-3,3.20e-2,
3.414000e-3,3.20e-2,
3.416000e-3,3.20e-2,
3.418000e-3,3.20e-2,
3.420000e-3,3.20e-2,
3.422000e-3,3.40e-2,
3.424000e-3,3.40e-2,
3.426000e-3,3.20e-2,
3.428000e-3,3.20e-2,
3.430000e-3,3.20e-2,
3.432000e-3,3.20e-2,
3.434000e-3,3.20e-2,
3.436000e-3,3.20e-2,
3.438000e-3,3.20e-2,
3.440000e-3,3.20e-2,
3.442000e-3,3.20e-2,
3.444000e-3,3.20e-2,
3.446000e-3,3.20e-2,
3.448000e-3,3.20e-2,
3.450000e-3,3.20e-2,
3.452000e-3,3.20e-2,
3.454000e-3,3.00e-2,
3.456000e-3,3.00e-2,
3.458000e-3,3.20e-2,
3.460000e-3,3.20e-2,
3.462000e-3,3.20e-2,
3.464000e-3,3.20e-2,
3.466000e-3,3.00e-2,
3.468000e-3,3.00e-2,
3.470000e-3,3.00e-2,
3.472000e-3,3.00e-2,
3.474000e-3,3.00e-2,
3.476000e-3,3.00e-2,
3.478000e-3,3.00e-2,
3.480000e-3,3.00e-2,
3.482000e-3,3.00e-2,
3.484000e-3,3.00e-2,
3.486000e-3,3.00e-2,
3.488000e-3,3.00e-2,
3.490000e-3,3.00e-2,
3.492000e-3,3.00e-2,
3.494000e-3,3.20e-2,
3.496000e-3,3.20e-2,
3.498000e-3,3.00e-2,
3.500000e-3,3.00e-2,
3.502000e-3,3.00e-2,
3.504000e-3,3.00e-2,
3.506000e-3,3.00e-2,
3.508000e-3,3.00e-2,
3.510000e-3,2.80e-2,
3.512000e-3,2.80e-2,
3.514000e-3,2.80e-2,
3.516000e-3,2.80e-2,
3.518000e-3,2.80e-2,
3.520000e-3,2.80e-2,
3.522000e-3,3.00e-2,
3.524000e-3,3.00e-2,
3.526000e-3,3.00e-2,
3.528000e-3,3.00e-2,
3.530000e-3,3.00e-2,
3.532000e-3,3.00e-2,
3.534000e-3,3.00e-2,
3.536000e-3,3.00e-2,
3.538000e-3,2.80e-2,
3.540000e-3,2.80e-2,
3.542000e-3,2.80e-2,
3.544000e-3,2.80e-2,
3.546000e-3,3.00e-2,
3.548000e-3,3.00e-2,
3.550000e-3,2.80e-2,
3.552000e-3,2.80e-2,
3.554000e-3,2.80e-2,
3.556000e-3,2.80e-2,
3.558000e-3,2.80e-2,
3.560000e-3,2.80e-2,
3.562000e-3,2.80e-2,
3.564000e-3,2.80e-2,
3.566000e-3,2.80e-2,
3.568000e-3,2.80e-2,
3.570000e-3,2.80e-2,
3.572000e-3,2.80e-2,
3.574000e-3,2.80e-2,
3.576000e-3,2.80e-2,
3.578000e-3,2.80e-2,
3.580000e-3,2.80e-2,
3.582000e-3,2.60e-2,
3.584000e-3,2.60e-2,
3.586000e-3,2.60e-2,
3.588000e-3,2.60e-2,
3.590000e-3,2.60e-2,
3.592000e-3,2.60e-2,
3.594000e-3,2.60e-2,
3.596000e-3,2.60e-2,
3.598000e-3,2.60e-2,
3.600000e-3,2.60e-2,
3.602000e-3,2.60e-2,
3.604000e-3,2.60e-2,
3.606000e-3,2.60e-2,
3.608000e-3,2.60e-2,
3.610000e-3,2.60e-2,
3.612000e-3,2.60e-2,
3.614000e-3,2.40e-2,
3.616000e-3,2.40e-2,
3.618000e-3,2.40e-2,
3.620000e-3,2.40e-2,
3.622000e-3,2.60e-2,
3.624000e-3,2.60e-2,
3.626000e-3,2.60e-2,
3.628000e-3,2.60e-2,
3.630000e-3,2.60e-2,
3.632000e-3,2.60e-2,
3.634000e-3,2.60e-2,
3.636000e-3,2.60e-2,
3.638000e-3,2.40e-2,
3.640000e-3,2.40e-2,
3.642000e-3,2.40e-2,
3.644000e-3,2.40e-2,
3.646000e-3,2.60e-2,
3.648000e-3,2.60e-2,
3.650000e-3,2.60e-2,
3.652000e-3,2.60e-2,
3.654000e-3,2.60e-2,
3.656000e-3,2.60e-2,
3.658000e-3,2.40e-2,
3.660000e-3,2.40e-2,
3.662000e-3,2.40e-2,
3.664000e-3,2.40e-2,
3.666000e-3,2.40e-2,
3.668000e-3,2.40e-2,
3.670000e-3,2.40e-2,
3.672000e-3,2.40e-2,
3.674000e-3,2.20e-2,
3.676000e-3,2.20e-2,
3.678000e-3,2.40e-2,
3.680000e-3,2.40e-2,
3.682000e-3,2.20e-2,
3.684000e-3,2.20e-2,
3.686000e-3,2.40e-2,
3.688000e-3,2.40e-2,
3.690000e-3,2.40e-2,
3.692000e-3,2.40e-2,
3.694000e-3,2.00e-2,
3.696000e-3,2.00e-2,
3.698000e-3,2.40e-2,
3.700000e-3,2.40e-2,
3.702000e-3,2.40e-2,
3.704000e-3,2.40e-2,
3.706000e-3,2.20e-2,
3.708000e-3,2.20e-2,
3.710000e-3,2.40e-2,
3.712000e-3,2.40e-2,
3.714000e-3,2.40e-2,
3.716000e-3,2.40e-2,
3.718000e-3,2.00e-2,
3.720000e-3,2.00e-2,
3.722000e-3,2.00e-2,
3.724000e-3,2.00e-2,
3.726000e-3,2.40e-2,
3.728000e-3,2.40e-2,
3.730000e-3,2.00e-2,
3.732000e-3,2.00e-2,
3.734000e-3,2.20e-2,
3.736000e-3,2.20e-2,
3.738000e-3,2.00e-2,
3.740000e-3,2.00e-2,
3.742000e-3,2.20e-2,
3.744000e-3,2.20e-2,
3.746000e-3,2.00e-2,
3.748000e-3,2.00e-2,
3.750000e-3,2.00e-2,
3.752000e-3,2.00e-2,
3.754000e-3,2.00e-2,
3.756000e-3,2.00e-2,
3.758000e-3,2.20e-2,
3.760000e-3,2.20e-2,
3.762000e-3,2.00e-2,
3.764000e-3,2.00e-2,
3.766000e-3,2.20e-2,
3.768000e-3,2.20e-2,
3.770000e-3,2.00e-2,
3.772000e-3,2.00e-2,
3.774000e-3,2.20e-2,
3.776000e-3,2.20e-2,
3.778000e-3,2.00e-2,
3.780000e-3,2.00e-2,
3.782000e-3,2.00e-2,
3.784000e-3,2.00e-2,
3.786000e-3,1.80e-2,
3.788000e-3,1.80e-2,
3.790000e-3,1.80e-2,
3.792000e-3,1.80e-2,
3.794000e-3,2.00e-2,
3.796000e-3,2.00e-2,
3.798000e-3,1.80e-2,
3.800000e-3,1.80e-2,
3.802000e-3,2.00e-2,
3.804000e-3,2.00e-2,
3.806000e-3,1.80e-2,
3.808000e-3,1.80e-2,
3.810000e-3,1.80e-2,
3.812000e-3,1.80e-2,
3.814000e-3,1.60e-2,
3.816000e-3,1.60e-2,
3.818000e-3,2.00e-2,
3.820000e-3,2.00e-2,
3.822000e-3,1.80e-2,
3.824000e-3,1.80e-2,
3.826000e-3,1.80e-2,
3.828000e-3,1.80e-2,
3.830000e-3,1.60e-2,
3.832000e-3,1.60e-2,
3.834000e-3,1.80e-2,
3.836000e-3,1.80e-2,
3.838000e-3,1.80e-2,
3.840000e-3,1.80e-2,
3.842000e-3,1.80e-2,
3.844000e-3,1.80e-2,
3.846000e-3,1.60e-2,
3.848000e-3,1.60e-2,
3.850000e-3,1.80e-2,
3.852000e-3,1.80e-2,
3.854000e-3,1.80e-2,
3.856000e-3,1.80e-2,
3.858000e-3,1.80e-2,
3.860000e-3,1.80e-2,
3.862000e-3,1.60e-2,
3.864000e-3,1.60e-2,
3.866000e-3,1.60e-2,
3.868000e-3,1.60e-2,
3.870000e-3,1.60e-2,
3.872000e-3,1.60e-2,
3.874000e-3,1.80e-2,
3.876000e-3,1.80e-2,
3.878000e-3,1.60e-2,
3.880000e-3,1.60e-2,
3.882000e-3,1.60e-2,
3.884000e-3,1.60e-2,
3.886000e-3,1.40e-2,
3.888000e-3,1.40e-2,
3.890000e-3,1.80e-2,
3.892000e-3,1.80e-2,
3.894000e-3,1.60e-2,
3.896000e-3,1.60e-2,
3.898000e-3,1.60e-2,
3.900000e-3,1.60e-2,
3.902000e-3,1.40e-2,
3.904000e-3,1.40e-2,
3.906000e-3,1.60e-2,
3.908000e-3,1.60e-2,
3.910000e-3,1.40e-2,
3.912000e-3,1.40e-2,
3.914000e-3,1.60e-2,
3.916000e-3,1.60e-2,
3.918000e-3,1.40e-2,
3.920000e-3,1.40e-2,
3.922000e-3,1.40e-2,
3.924000e-3,1.40e-2,
3.926000e-3,1.40e-2,
3.928000e-3,1.40e-2,
3.930000e-3,1.40e-2,
3.932000e-3,1.40e-2,
3.934000e-3,1.20e-2,
3.936000e-3,1.20e-2,
3.938000e-3,1.40e-2,
3.940000e-3,1.40e-2,
3.942000e-3,1.60e-2,
3.944000e-3,1.60e-2,
3.946000e-3,1.40e-2,
3.948000e-3,1.40e-2,
3.950000e-3,1.40e-2,
3.952000e-3,1.40e-2,
3.954000e-3,1.20e-2,
3.956000e-3,1.20e-2,
3.958000e-3,1.20e-2,
3.960000e-3,1.20e-2,
3.962000e-3,1.20e-2,
3.964000e-3,1.20e-2,
3.966000e-3,1.20e-2,
3.968000e-3,1.20e-2,
3.970000e-3,1.40e-2,
3.972000e-3,1.40e-2,
3.974000e-3,1.20e-2,
3.976000e-3,1.20e-2,
3.978000e-3,1.00e-2,
3.980000e-3,1.00e-2,
3.982000e-3,1.20e-2,
3.984000e-3,1.20e-2,
3.986000e-3,1.00e-2,
3.988000e-3,1.00e-2,
3.990000e-3,1.20e-2,
3.992000e-3,1.20e-2,
3.994000e-3,1.20e-2,
3.996000e-3,1.20e-2,
3.998000e-3,1.20e-2,
4.000000e-3,1.20e-2,
4.002000e-3,1.20e-2,
4.004000e-3,1.20e-2,
4.006000e-3,1.00e-2,
4.008000e-3,1.00e-2,
4.010000e-3,1.20e-2,
4.012000e-3,1.20e-2,
4.014000e-3,1.20e-2,
4.016000e-3,1.20e-2,
4.018000e-3,1.00e-2,
4.020000e-3,1.00e-2,
4.022000e-3,1.00e-2,
4.024000e-3,1.00e-2,
4.026000e-3,1.00e-2,
4.028000e-3,1.00e-2,
4.030000e-3,1.20e-2,
4.032000e-3,1.20e-2,
4.034000e-3,1.00e-2,
4.036000e-3,1.00e-2,
4.038000e-3,1.20e-2,
4.040000e-3,1.20e-2,
4.042000e-3,8.00e-3,
4.044000e-3,8.00e-3,
4.046000e-3,1.00e-2,
4.048000e-3,1.00e-2,
4.050000e-3,8.00e-3,
4.052000e-3,8.00e-3,
4.054000e-3,8.00e-3,
4.056000e-3,8.00e-3,
4.058000e-3,1.00e-2,
